t=csvread('t_log.csv');
x=csvread('x_log.csv');
t=t(2515:length(t))

t =

   30.1823
   30.1941
   30.2062
   30.2177
   30.2301
   30.2419
   30.2541
   30.2658
   30.2782
   30.2899
   30.3023
   30.3139
   30.3262
   30.3379
   30.3501
   30.3617
   30.3743
   30.3859
   30.3984
   30.4097
   30.4221
   30.4337
   30.4466
   30.4578
   30.4702
   30.4817
   30.4941
   30.5057
   30.5184
   30.5298
   30.5421
   30.5537
   30.5663
   30.5778
   30.5902
   30.6019
   30.6143
   30.6259
   30.6383
   30.6499
   30.6623
   30.6737
   30.6863
   30.6979
   30.7103
   30.7218
   30.7342
   30.7458
   30.7581
   30.7698
   30.7821
   30.7939
   30.8061
   30.8180
   30.8302
   30.8418
   30.8541
   30.8660
   30.8784
   30.8898
   30.9022
   30.9138
   30.9262
   30.9378
   30.9503
   30.9619
   30.9743
   30.9859
   30.9983
   31.0097
   31.0224
   31.0339
   31.0463
   31.0579
   31.0702
   31.0820
   31.0943
   31.1060
   31.1181
   31.1298
   31.1422
   31.1538
   31.1662
   31.1778
   31.1901
   31.2019
   31.2143
   31.2259
   31.2383
   31.2498
   31.2621
   31.2739
   31.2863
   31.2979
   31.3103
   31.3219
   31.3343
   31.3459
   31.3583
   31.3700
   31.3824
   31.3939
   31.4063
   31.4178
   31.4302
   31.4420
   31.4543
   31.4658
   31.4782
   31.4898
   31.5022
   31.5139
   31.5263
   31.5379
   31.5503
   31.5619
   31.5742
   31.5860
   31.5984
   31.6100
   31.6224
   31.6340
   31.6463
   31.6579
   31.6703
   31.6819
   31.6943
   31.7059
   31.7183
   31.7298
   31.7422
   31.7538
   31.7662
   31.7780
   31.7902
   31.8018
   31.8142
   31.8260
   31.8384
   31.8500
   31.8624
   31.8740
   31.8863
   31.8979
   31.9103
   31.9219
   31.9343
   31.9460
   31.9584
   31.9699
   31.9824
   31.9940
   32.0064
   32.0180
   32.0303
   32.0420
   32.0544
   32.0659
   32.0785
   32.0900
   32.1022
   32.1138
   32.1262
   32.1378
   32.1502
   32.1620
   32.1742
   32.1860
   32.1984
   32.2099
   32.2223
   32.2339
   32.2463
   32.2579
   32.2702
   32.2818
   32.2942
   32.3060
   32.3184
   32.3298
   32.3424
   32.3538
   32.3662
   32.3780
   32.3903
   32.4019
   32.4142
   32.4259
   32.4384
   32.4499
   32.4624
   32.4738
   32.4862
   32.4978
   32.5102
   32.5220
   32.5342
   32.5458
   32.5584
   32.5699
   32.5824
   32.5939
   32.6063
   32.6179
   32.6303
   32.6419
   32.6543
   32.6658
   32.6782
   32.6899
   32.7024
   32.7139
   32.7263
   32.7379
   32.7503
   32.7618
   32.7742
   32.7860
   32.7984
   32.8099
   32.8225
   32.8339
   32.8463
   32.8579
   32.8703
   32.8819
   32.8943
   32.9059
   32.9182
   32.9300
   32.9424
   32.9540
   32.9663
   32.9779
   32.9903
   33.0019
   33.0143
   33.0258
   33.0384
   33.0500
   33.0624
   33.0740
   33.0863
   33.0979
   33.1103
   33.1219
   33.1344
   33.1460
   33.1584
   33.1701
   33.1822
   33.1939
   33.2063
   33.2180
   33.2303
   33.2420
   33.2544
   33.2659
   33.2784
   33.2900
   33.3024
   33.3140
   33.3263
   33.3379
   33.3503
   33.3619
   33.3743
   33.3858
   33.3985
   33.4101
   33.4224
   33.4340
   33.4465
   33.4580
   33.4702
   33.4820
   33.4944
   33.5059
   33.5185
   33.5300
   33.5423
   33.5539
   33.5664
   33.5779
   33.5903
   33.6019
   33.6142
   33.6261
   33.6384
   33.6500
   33.6623
   33.6740
   33.6864
   33.6981
   33.7105
   33.7220
   33.7344
   33.7460
   33.7584
   33.7700
   33.7824
   33.7939
   33.8063
   33.8179
   33.8303
   33.8421
   33.8543
   33.8661
   33.8785
   33.8900
   33.9024
   33.9140
   33.9263
   33.9379
   33.9505
   33.9620
   33.9744
   33.9860
   33.9984
   34.0100
   34.0224
   34.0340
   34.0463
   34.0580
   34.0705
   34.0820
   34.0943
   34.1061
   34.1185
   34.1301
   34.1425
   34.1541
   34.1665
   34.1781
   34.1904
   34.2022
   34.2143
   34.2259
   34.2383
   34.2499
   34.2624
   34.2740
   34.2864
   34.2980
   34.3103
   34.3220
   34.3343
   34.3459
   34.3585
   34.3701
   34.3824
   34.3940
   34.4064
   34.4179
   34.4303
   34.4420
   34.4545
   34.4660
   34.4784
   34.4901
   34.5025
   34.5140
   34.5264
   34.5380
   34.5505
   34.5621
   34.5745
   34.5862
   34.5985
   34.6101
   34.6225
   34.6341
   34.6464
   34.6580
   34.6704
   34.6820
   34.6944
   34.7060
   34.7185
   34.7299
   34.7423
   34.7539
   34.7664
   34.7780
   34.7904
   34.8020
   34.8143
   34.8260
   34.8384
   34.8500
   34.8624
   34.8741
   34.8864
   34.8980
   34.9104
   34.9221
   34.9345
   34.9460
   34.9584
   34.9701
   34.9824
   34.9940
   35.0064
   35.0180
   35.0305
   35.0421
   35.0545
   35.0661
   35.0785
   35.0900
   35.1024
   35.1141
   35.1265
   35.1381
   35.1505
   35.1621
   35.1745
   35.1861
   35.1986
   35.2101
   35.2224
   35.2340
   35.2464
   35.2580
   35.2704
   35.2821
   35.2945
   35.3061
   35.3186
   35.3301
   35.3424
   35.3541
   35.3665
   35.3781
   35.3903
   35.4022
   35.4145
   35.4262
   35.4385
   35.4503
   35.4624
   35.4741
   35.4865
   35.4981
   35.5103
   35.5220
   35.5343
   35.5460
   35.5584
   35.5701
   35.5825
   35.5940
   35.6064
   35.6181
   35.6306
   35.6422
   35.6543
   35.6662
   35.6786
   35.6901
   35.7024
   35.7142
   35.7264
   35.7380
   35.7505
   35.7621
   35.7746
   35.7860
   35.7986
   35.8102
   35.8225
   35.8340
   35.8464
   35.8580
   35.8704
   35.8821
   35.8945
   35.9061
   35.9185
   35.9301
   35.9426
   35.9541
   35.9666
   35.9780
   35.9905
   36.0021
   36.0145
   36.0261
   36.0385
   36.0500
   36.0624
   36.0741
   36.0865
   36.0982
   36.1104
   36.1221
   36.1345
   36.1461
   36.1585
   36.1702
   36.1824
   36.1942
   36.2064
   36.2182
   36.2305
   36.2421
   36.2544
   36.2660
   36.2784
   36.2900
   36.3025
   36.3141
   36.3266
   36.3380
   36.3505
   36.3622
   36.3744
   36.3861
   36.3985
   36.4101
   36.4226
   36.4342
   36.4467
   36.4582
   36.4705
   36.4820
   36.4946
   36.5062
   36.5184
   36.5300
   36.5424
   36.5540
   36.5664
   36.5782
   36.5906
   36.6020
   36.6144
   36.6260
   36.6385
   36.6502
   36.6625
   36.6741
   36.6865
   36.6984
   36.7107
   36.7221
   36.7344
   36.7460
   36.7584
   36.7701
   36.7825
   36.7941
   36.8066
   36.8181
   36.8305
   36.8420
   36.8544
   36.8661
   36.8785
   36.8901
   36.9025
   36.9143
   36.9264
   36.9380
   36.9506
   36.9622
   36.9744
   36.9863
   36.9985
   37.0101
   37.0225
   37.0341
   37.0465
   37.0584
   37.0706
   37.0822
   37.0945
   37.1061
   37.1185
   37.1302
   37.1426
   37.1542
   37.1666
   37.1782
   37.1905
   37.2022
   37.2145
   37.2262
   37.2386
   37.2502
   37.2626
   37.2742
   37.2866
   37.2982
   37.3105
   37.3222
   37.3345
   37.3463
   37.3584
   37.3701
   37.3825
   37.3941
   37.4065
   37.4182
   37.4304
   37.4421
   37.4546
   37.4661
   37.4785
   37.4900
   37.5025
   37.5142
   37.5266
   37.5382
   37.5506
   37.5622
   37.5746
   37.5862
   37.5986
   37.6103
   37.6227
   37.6343
   37.6464
   37.6580
   37.6705
   37.6822
   37.6947
   37.7063
   37.7186
   37.7301
   37.7425
   37.7541
   37.7665
   37.7781
   37.7906
   37.8022
   37.8145
   37.8263
   37.8386
   37.8502
   37.8625
   37.8741
   37.8865
   37.8981
   37.9105
   37.9221
   37.9345
   37.9461
   37.9586
   37.9701
   37.9824
   37.9941
   38.0065
   38.0181
   38.0306
   38.0423
   38.0544
   38.0661
   38.0786
   38.0901
   38.1026
   38.1143
   38.1265
   38.1381
   38.1506
   38.1622
   38.1746
   38.1862
   38.1988
   38.2103
   38.2224
   38.2343
   38.2467
   38.2583
   38.2705
   38.2822
   38.2946
   38.3062
   38.3186
   38.3303
   38.3426
   38.3543
   38.3666
   38.3782
   38.3905
   38.4023
   38.4145
   38.4262
   38.4386
   38.4503
   38.4627
   38.4741
   38.4865
   38.4981
   38.5107
   38.5221
   38.5345
   38.5461
   38.5585
   38.5701
   38.5826
   38.5942
   38.6067
   38.6183
   38.6305
   38.6422
   38.6546
   38.6662
   38.6786
   38.6902
   38.7027
   38.7143
   38.7265
   38.7381
   38.7506
   38.7623
   38.7747
   38.7863
   38.7987
   38.8103
   38.8227
   38.8343
   38.8467
   38.8584
   38.8706
   38.8822
   38.8946
   38.9063
   38.9187
   38.9302
   38.9427
   38.9542
   38.9667
   38.9781
   38.9907
   39.0023
   39.0147
   39.0264
   39.0386
   39.0503
   39.0627
   39.0744
   39.0867
   39.0984
   39.1106
   39.1222
   39.1346
   39.1462
   39.1587
   39.1703
   39.1827
   39.1943
   39.2066
   39.2184
   39.2307
   39.2424
   39.2545
   39.2662
   39.2786
   39.2902
   39.3026
   39.3142
   39.3268
   39.3385
   39.3506
   39.3623
   39.3747
   39.3863
   39.3987
   39.4103
   39.4226
   39.4342
   39.4468
   39.4584
   39.4705
   39.4823
   39.4945
   39.5064
   39.5188
   39.5301
   39.5426
   39.5542
   39.5666
   39.5784
   39.5910
   39.6023
   39.6145
   39.6264
   39.6388
   39.6502
   39.6626
   39.6742
   39.6866
   39.6985
   39.7105
   39.7223
   39.7347
   39.7464
   39.7585
   39.7701
   39.7826
   39.7942
   39.8066
   39.8183
   39.8306
   39.8422
   39.8547
   39.8663
   39.8787
   39.8903
   39.9027
   39.9143
   39.9267
   39.9386
   39.9507
   39.9623
   39.9747
   39.9864
   39.9987
   40.0102
   40.0227
   40.0342
   40.0466
   40.0584
   40.0707
   40.0823
   40.0947
   40.1063
   40.1188
   40.1302
   40.1426
   40.1543
   40.1666
   40.1782
   40.1906
   40.2023
   40.2146
   40.2263
   40.2387
   40.2503
   40.2627
   40.2744
   40.2867
   40.2984
   40.3105
   40.3223
   40.3346
   40.3462
   40.3588
   40.3704
   40.3828
   40.3944
   40.4068
   40.4184
   40.4306
   40.4422
   40.4549
   40.4664
   40.4786
   40.4903
   40.5027
   40.5144
   40.5268
   40.5384
   40.5506
   40.5623
   40.5747
   40.5862
   40.5987
   40.6103
   40.6227
   40.6343
   40.6467
   40.6586
   40.6706
   40.6823
   40.6948
   40.7064
   40.7186
   40.7303
   40.7428
   40.7544
   40.7666
   40.7782
   40.7907
   40.8023
   40.8148
   40.8262
   40.8388
   40.8502
   40.8627
   40.8743
   40.8867
   40.8984
   40.9108
   40.9224
   40.9348
   40.9465
   40.9588
   40.9703
   40.9827
   40.9943
   41.0067
   41.0184
   41.0306
   41.0424
   41.0548
   41.0664
   41.0788
   41.0905
   41.1026
   41.1143
   41.1267
   41.1384
   41.1508
   41.1624
   41.1746
   41.1862
   41.1988
   41.2104
   41.2227
   41.2343
   41.2467
   41.2584
   41.2706
   41.2822
   41.2946
   41.3062
   41.3187
   41.3304
   41.3427
   41.3543
   41.3667
   41.3784
   41.3908
   41.4024
   41.4148
   41.4264
   41.4388
   41.4504
   41.4627
   41.4742
   41.4866
   41.4983
   41.5108
   41.5224
   41.5348
   41.5464
   41.5589
   41.5704
   41.5828
   41.5942
   41.6066
   41.6182
   41.6307
   41.6424
   41.6548
   41.6664
   41.6786
   41.6903
   41.7028
   41.7144
   41.7268
   41.7384
   41.7508
   41.7624
   41.7749
   41.7863
   41.7987
   41.8103
   41.8229
   41.8343
   41.8467
   41.8584
   41.8708
   41.8823
   41.8947
   41.9062
   41.9187
   41.9303
   41.9427
   41.9544
   41.9667
   41.9784
   41.9907
   42.0024
   42.0146
   42.0265
   42.0387
   42.0503
   42.0627
   42.0743
   42.0867
   42.0984
   42.1108
   42.1225
   42.1349
   42.1465
   42.1586
   42.1703
   42.1826
   42.1944
   42.2068
   42.2185
   42.2308
   42.2424
   42.2548
   42.2664
   42.2789
   42.2903
   42.3027
   42.3143
   42.3269
   42.3384
   42.3508
   42.3625
   42.3749
   42.3863
   42.3987
   42.4103
   42.4227
   42.4344
   42.4468
   42.4584
   42.4708
   42.4823
   42.4948
   42.5064
   42.5188
   42.5304
   42.5428
   42.5544
   42.5668
   42.5786
   42.5907
   42.6023
   42.6148
   42.6263
   42.6387
   42.6504
   42.6628
   42.6744
   42.6869
   42.6985
   42.7108
   42.7223
   42.7348
   42.7464
   42.7589
   42.7705
   42.7827
   42.7943
   42.8067
   42.8184
   42.8309
   42.8424
   42.8549
   42.8663
   42.8787
   42.8903
   42.9027
   42.9143
   42.9267
   42.9384
   42.9510
   42.9623
   42.9748
   42.9864
   42.9989
   43.0105
   43.0230
   43.0344
   43.0468
   43.0586
   43.0708
   43.0824
   43.0948
   43.1064
   43.1188
   43.1304
   43.1428
   43.1545
   43.1668
   43.1784
   43.1908
   43.2024
   43.2149
   43.2263
   43.2387
   43.2504
   43.2628
   43.2744
   43.2869
   43.2985
   43.3109
   43.3224
   43.3347
   43.3464
   43.3588
   43.3705
   43.3829
   43.3945
   43.4068
   43.4185
   43.4308
   43.4426
   43.4548
   43.4665
   43.4787
   43.4904
   43.5028
   43.5145
   43.5269
   43.5385
   43.5509
   43.5625
   43.5750
   43.5865
   43.5989
   43.6106
   43.6229
   43.6345
   43.6468
   43.6584
   43.6708
   43.6825
   43.6951
   43.7064
   43.7189
   43.7305
   43.7429
   43.7546
   43.7669
   43.7786
   43.7909
   43.8025
   43.8148
   43.8265
   43.8388
   43.8505
   43.8629
   43.8745
   43.8869
   43.8985
   43.9107
   43.9224
   43.9348
   43.9465
   43.9589
   43.9705
   43.9828
   43.9945
   44.0069
   44.0186
   44.0307
   44.0424
   44.0548
   44.0664
   44.0790
   44.0905
   44.1030
   44.1145
   44.1269
   44.1385
   44.1509
   44.1625
   44.1749
   44.1865
   44.1989
   44.2106
   44.2228
   44.2344
   44.2468
   44.2585
   44.2709
   44.2826
   44.2949
   44.3065
   44.3188
   44.3306
   44.3428
   44.3545
   44.3669
   44.3785
   44.3909
   44.4025
   44.4149
   44.4266
   44.4390
   44.4505
   44.4628
   44.4745
   44.4869
   44.4986
   44.5110
   44.5226
   44.5348
   44.5464
   44.5590
   44.5705
   44.5831
   44.5945
   44.6068
   44.6184
   44.6308
   44.6425
   44.6549
   44.6666
   44.6788
   44.6905
   44.7029
   44.7146
   44.7268
   44.7385
   44.7510
   44.7624
   44.7748
   44.7865
   44.7989
   44.8106
   44.8260
   44.8344
   44.8470
   44.8586
   44.8710
   44.8824
   44.8950
   44.9064
   44.9189
   44.9306
   44.9457
   44.9545
   44.9669
   44.9785
   44.9908
   45.0025
   45.0150
   45.0267
   45.0389
   45.0505
   45.0630
   45.0744
   45.0870
   45.0985
   45.1109
   45.1226
   45.1348
   45.1464
   45.1589
   45.1706
   45.1830
   45.1968
   45.2069
   45.2186
   45.2308
   45.2426
   45.2550
   45.2666
   45.2788
   45.2905
   45.3029
   45.3145
   45.3268
   45.3385
   45.3509
   45.3626
   45.3748
   45.3864
   45.3989
   45.4106
   45.4230
   45.4344
   45.4502
   45.4585
   45.4708
   45.4826
   45.4948
   45.5065
   45.5189
   45.5304
   45.5429
   45.5546
   45.5670
   45.5786
   45.5909
   45.6025
   45.6149
   45.6266
   45.6390
   45.6504
   45.6629
   45.6745
   45.6869
   45.6987
   45.7108
   45.7224
   45.7349
   45.7466
   45.7590
   45.7706
   45.7830
   45.7947
   45.8068
   45.8186
   45.8311
   45.8426
   45.8550
   45.8664
   45.8788
   45.8905
   45.9030
   45.9146
   45.9270
   45.9385
   45.9509
   45.9626
   45.9751
   45.9865
   45.9989
   46.0105
   46.0230
   46.0346
   46.0470
   46.0587
   46.0708
   46.0826
   46.0949
   46.1065
   46.1189
   46.1306
   46.1430
   46.1546
   46.1670
   46.1786
   46.1911
   46.2025
   46.2151
   46.2264
   46.2391
   46.2504
   46.2628
   46.2745
   46.2869
   46.2986
   46.3109
   46.3227
   46.3350
   46.3466
   46.3590
   46.3706
   46.3830
   46.3946
   46.4071
   46.4185
   46.4310
   46.4425
   46.4550
   46.4665
   46.4789
   46.4905
   46.5029
   46.5146
   46.5271
   46.5385
   46.5510
   46.5626
   46.5751
   46.5867
   46.5991
   46.6107
   46.6230
   46.6346
   46.6470
   46.6586
   46.6709
   46.6826
   46.6950
   46.7065
   46.7190
   46.7307
   46.7429
   46.7545
   46.7669
   46.7785
   46.7909
   46.8026
   46.8149
   46.8265
   46.8390
   46.8507
   46.8630
   46.8746
   46.8869
   46.8987
   46.9111
   46.9226
   46.9350
   46.9467
   46.9591
   46.9707
   46.9831
   46.9947
   47.0071
   47.0187
   47.0310
   47.0426
   47.0550
   47.0671
   47.0791
   47.0907
   47.1030
   47.1146
   47.1270
   47.1386
   47.1511
   47.1627
   47.1751
   47.1867
   47.1991
   47.2106
   47.2230
   47.2346
   47.2470
   47.2587
   47.2709
   47.2826
   47.2951
   47.3065
   47.3190
   47.3306
   47.3429
   47.3547
   47.3669
   47.3785
   47.3910
   47.4027
   47.4149
   47.4266
   47.4391
   47.4506
   47.4631
   47.4747
   47.4871
   47.4988
   47.5109
   47.5227
   47.5351
   47.5465
   47.5590
   47.5707
   47.5831
   47.5945
   47.6069
   47.6186
   47.6311
   47.6426
   47.6551
   47.6666
   47.6790
   47.6905
   47.7032
   47.7145
   47.7270
   47.7386
   47.7511
   47.7626
   47.7751
   47.7868
   47.7990
   47.8106
   47.8230
   47.8346
   47.8471
   47.8587
   47.8710
   47.8827
   47.8951
   47.9066
   47.9191
   47.9306
   47.9431
   47.9546
   47.9670
   47.9787
   47.9911
   48.0025
   48.0150
   48.0267
   48.0390
   48.0507
   48.0631
   48.0746
   48.0871
   48.0987
   48.1111
   48.1226
   48.1350
   48.1467
   48.1591
   48.1706
   48.1830
   48.1948
   48.2070
   48.2187
   48.2311
   48.2427
   48.2552
   48.2668
   48.2790
   48.2907
   48.3029
   48.3146
   48.3271
   48.3386
   48.3512
   48.3626
   48.3750
   48.3866
   48.3990
   48.4107
   48.4231
   48.4346
   48.4471
   48.4588
   48.4710
   48.4826
   48.4951
   48.5067
   48.5191
   48.5308
   48.5431
   48.5547
   48.5672
   48.5787
   48.5910
   48.6027
   48.6151
   48.6267
   48.6391
   48.6507
   48.6631
   48.6746
   48.6871
   48.6989
   48.7110
   48.7227
   48.7351
   48.7467
   48.7591
   48.7707
   48.7830
   48.7946
   48.8070
   48.8188
   48.8311
   48.8426
   48.8550
   48.8667
   48.8791
   48.8907
   48.9031
   48.9148
   48.9272
   48.9386
   48.9512
   48.9626
   48.9750
   48.9866
   48.9991
   49.0107
   49.0231
   49.0348
   49.0470
   49.0588
   49.0712
   49.0827
   49.0952
   49.1068
   49.1192
   49.1308
   49.1430
   49.1546
   49.1671
   49.1787
   49.1912
   49.2028
   49.2151
   49.2267
   49.2391
   49.2507
   49.2632
   49.2746
   49.2870
   49.2987
   49.3111
   49.3229
   49.3352
   49.3468
   49.3592
   49.3708
   49.3830
   49.3948
   49.4070
   49.4187
   49.4311
   49.4429
   49.4551
   49.4668
   49.4792
   49.4906
   49.5030
   49.5147
   49.5271
   49.5389
   49.5511
   49.5627
   49.5751
   49.5868
   49.5991
   49.6108
   49.6230
   49.6347
   49.6471
   49.6588
   49.6712
   49.6829
   49.6952
   49.7067
   49.7192
   49.7309
   49.7430
   49.7547
   49.7671
   49.7788
   49.7910
   49.8027
   49.8151
   49.8268
   49.8391
   49.8507
   49.8631
   49.8747
   49.8871
   49.8988
   49.9112
   49.9228
   49.9352
   49.9467
   49.9590
   49.9707
   49.9831
   49.9947
   50.0071
   50.0187
   50.0311
   50.0427
   50.0551
   50.0668
   50.0792
   50.0907
   50.1031
   50.1147
   50.1271
   50.1388
   50.1512
   50.1628
   50.1752
   50.1868
   50.1993
   50.2106
   50.2230
   50.2347
   50.2471
   50.2589
   50.2711
   50.2828
   50.2952
   50.3067
   50.3192
   50.3309
   50.3431
   50.3548
   50.3672
   50.3789
   50.3911
   50.4027
   50.4152
   50.4269
   50.4391
   50.4509
   50.4633
   50.4747
   50.4871
   50.4988
   50.5112
   50.5229
   50.5351
   50.5467
   50.5591
   50.5708
   50.5831
   50.5948
   50.6073
   50.6189
   50.6311
   50.6428
   50.6553
   50.6667
   50.6791
   50.6908
   50.7031
   50.7147
   50.7272
   50.7388
   50.7512
   50.7627
   50.7751
   50.7867
   50.7992
   50.8108
   50.8232
   50.8347
   50.8472
   50.8587
   50.8712
   50.8829
   50.8951
   50.9068
   50.9191
   50.9308
   50.9434
   50.9548
   50.9671
   50.9787
   50.9911
   51.0028
   51.0151
   51.0268
   51.0392
   51.0508
   51.0633
   51.0748
   51.0871
   51.0987
   51.1111
   51.1227
   51.1351
   51.1468
   51.1592
   51.1708
   51.1833
   51.1947
   51.2073
   51.2189
   51.2311
   51.2427
   51.2551
   51.2667
   51.2791
   51.2908
   51.3032
   51.3148
   51.3273
   51.3388
   51.3512
   51.3628
   51.3751
   51.3867
   51.3991
   51.4108
   51.4232
   51.4349
   51.4471
   51.4587
   51.4711
   51.4827
   51.4951
   51.5067
   51.5191
   51.5307
   51.5431
   51.5547
   51.5673
   51.5789
   51.5911
   51.6027
   51.6153
   51.6267
   51.6391
   51.6508
   51.6632
   51.6748
   51.6872
   51.6989
   51.7112
   51.7227
   51.7351
   51.7467
   51.7593
   51.7709
   51.7831
   51.7947
   51.8071
   51.8189
   51.8311
   51.8428
   51.8551
   51.8667
   51.8794
   51.8907
   51.9031
   51.9147
   51.9272
   51.9389
   51.9513
   51.9628
   51.9752
   51.9867
   51.9991
   52.0109
   52.0233
   52.0349
   52.0471
   52.0588
   52.0714
   52.0829

x=x(2515:length(x),:)

x =

    0.0128    0.0043   -1.6818
    0.0129    0.0043   -1.6819
    0.0130    0.0044   -1.6819
    0.0291   -0.0005   -1.6828
    0.0307   -0.0009   -1.6829
    0.0308   -0.0009   -1.6830
    0.0309   -0.0009   -1.6830
    0.0310   -0.0009   -1.6830
    0.0311   -0.0009   -1.6830
    0.0312   -0.0008   -1.6830
    0.0313   -0.0008   -1.6831
    0.0314   -0.0008   -1.6831
    0.0315   -0.0008   -1.6831
    0.0402    0.0275   -1.6793
    0.0418    0.0306   -1.6791
    0.0419    0.0306   -1.6791
    0.0420    0.0306   -1.6791
    0.0421    0.0306   -1.6791
    0.0422    0.0306   -1.6792
    0.0423    0.0306   -1.6792
    0.0424    0.0306   -1.6792
    0.0425    0.0307   -1.6793
    0.0425    0.0307   -1.6794
    0.0426    0.0307   -1.6794
    0.0535    0.0776   -1.6726
    0.0547    0.0824   -1.6721
    0.0548    0.0824   -1.6721
    0.0549    0.0824   -1.6721
    0.0550    0.0824   -1.6721
    0.0551    0.0824   -1.6722
    0.0551    0.0824   -1.6722
    0.0552    0.0824   -1.6722
    0.0553    0.0824   -1.6722
    0.0554    0.0825   -1.6723
    0.1031    0.1268   -1.6636
    0.1097    0.1327   -1.6630
    0.1098    0.1327   -1.6631
    0.1098    0.1327   -1.6631
    0.1099    0.1328   -1.6631
    0.1100    0.1328   -1.6631
    0.1100    0.1328   -1.6631
    0.1101    0.1329   -1.6632
    0.1102    0.1329   -1.6632
    0.1102    0.1329   -1.6632
    0.1733    0.1687   -1.6484
    0.1803    0.1728   -1.6474
    0.1803    0.1728   -1.6474
    0.1804    0.1728   -1.6474
    0.1804    0.1729   -1.6474
    0.1805    0.1729   -1.6474
    0.1805    0.1729   -1.6475
    0.1806    0.1730   -1.6475
    0.1806    0.1730   -1.6475
    0.1807    0.1730   -1.6476
    0.1807    0.1731   -1.6476
    0.2504    0.1963   -1.6369
    0.2576    0.1993   -1.6361
    0.2576    0.1993   -1.6362
    0.2577    0.1994   -1.6362
    0.2577    0.1994   -1.6363
    0.2578    0.1994   -1.6363
    0.2578    0.1995   -1.6364
    0.2579    0.1995   -1.6364
    0.2579    0.1995   -1.6365
    0.2580    0.1996   -1.6365
    0.2888    0.2413   -1.6299
    0.2920    0.2457   -1.6293
    0.2920    0.2457   -1.6294
    0.2921    0.2457   -1.6294
    0.2921    0.2458   -1.6295
    0.2922    0.2458   -1.6295
    0.2922    0.2458   -1.6295
    0.2923    0.2459   -1.6295
    0.2923    0.2459   -1.6295
    0.2923    0.2460   -1.6295
    0.2924    0.2460   -1.6296
    0.3379    0.2792   -1.6211
    0.3425    0.2827   -1.6205
    0.3426    0.2827   -1.6205
    0.3426    0.2827   -1.6205
    0.3426    0.2828   -1.6205
    0.3426    0.2828   -1.6206
    0.3426    0.2829   -1.6206
    0.3427    0.2829   -1.6206
    0.3427    0.2829   -1.6206
    0.3427    0.2829   -1.6206
    0.3812    0.3262   -1.6054
    0.3855    0.3311   -1.6040
    0.3855    0.3311   -1.6041
    0.3855    0.3311   -1.6041
    0.3856    0.3310   -1.6042
    0.3856    0.3310   -1.6042
    0.3856    0.3310   -1.6042
    0.3856    0.3310   -1.6042
    0.3856    0.3310   -1.6042
    0.3856    0.3310   -1.6042
    0.4131    0.3866   -1.5759
    0.4162    0.3929   -1.5733
    0.4162    0.3929   -1.5733
    0.4162    0.3929   -1.5734
    0.4162    0.3929   -1.5734
    0.4163    0.3930   -1.5734
    0.4163    0.3930   -1.5735
    0.4163    0.3930   -1.5735
    0.4164    0.3930   -1.5736
    0.4164    0.3930   -1.5736
    0.4165    0.3930   -1.5737
    0.4104    0.3843   -1.5695
    0.4099    0.3835   -1.5693
    0.4099    0.3835   -1.5694
    0.4100    0.3836   -1.5694
    0.4101    0.3836   -1.5695
    0.4101    0.3836   -1.5695
    0.4102    0.3836   -1.5695
    0.4103    0.3836   -1.5696
    0.4104    0.3836   -1.5696
    0.4104    0.3836   -1.5696
    0.3797    0.3748   -1.5644
    0.3761    0.3739   -1.5642
    0.3762    0.3739   -1.5642
    0.3763    0.3739   -1.5642
    0.3764    0.3740   -1.5642
    0.3765    0.3740   -1.5642
    0.3766    0.3740   -1.5642
    0.3766    0.3740   -1.5642
    0.3767    0.3741   -1.5642
    0.3768    0.3741   -1.5643
    0.3769    0.3741   -1.5643
    0.3468    0.3589   -1.5586
    0.3438    0.3574   -1.5583
    0.3439    0.3575   -1.5583
    0.3440    0.3575   -1.5583
    0.3440    0.3575   -1.5583
    0.3442    0.3576   -1.5583
    0.3442    0.3576   -1.5584
    0.3443    0.3576   -1.5584
    0.3444    0.3576   -1.5584
    0.3445    0.3577   -1.5584
    0.3222    0.3072   -1.5482
    0.3199    0.3018   -1.5477
    0.3200    0.3018   -1.5477
    0.3201    0.3018   -1.5478
    0.3202    0.3019   -1.5478
    0.3203    0.3019   -1.5478
    0.3204    0.3019   -1.5478
    0.3206    0.3019   -1.5478
    0.3207    0.3019   -1.5478
    0.3208    0.3019   -1.5479
    0.3210    0.3019   -1.5479
    0.2493    0.2509   -1.5463
    0.2426    0.2461   -1.5462
    0.2427    0.2461   -1.5463
    0.2428    0.2461   -1.5463
    0.2430    0.2461   -1.5464
    0.2431    0.2462   -1.5465
    0.2432    0.2462   -1.5465
    0.2433    0.2463   -1.5466
    0.2434    0.2463   -1.5466
    0.2435    0.2463   -1.5466
    0.2043    0.1878   -1.5347
    0.2004    0.1818   -1.5337
    0.2005    0.1818   -1.5337
    0.2006    0.1818   -1.5337
    0.2007    0.1818   -1.5338
    0.2007    0.1819   -1.5338
    0.2008    0.1819   -1.5338
    0.2009    0.1820   -1.5338
    0.2010    0.1820   -1.5339
    0.2011    0.1821   -1.5339
    0.1693    0.1435   -1.5312
    0.1655    0.1392   -1.5310
    0.1656    0.1392   -1.5310
    0.1657    0.1392   -1.5310
    0.1658    0.1393   -1.5310
    0.1659    0.1393   -1.5310
    0.1660    0.1393   -1.5311
    0.1661    0.1393   -1.5311
    0.1662    0.1393   -1.5311
    0.1663    0.1393   -1.5311
    0.1664    0.1394   -1.5310
    0.1457    0.1048   -1.5272
    0.1436    0.1011   -1.5267
    0.1437    0.1011   -1.5267
    0.1438    0.1011   -1.5267
    0.1439    0.1011   -1.5267
    0.1440    0.1011   -1.5267
    0.1441    0.1011   -1.5267
    0.1442    0.1011   -1.5267
    0.1443    0.1011   -1.5267
    0.1444    0.1011   -1.5268
    0.1099    0.0664   -1.5211
    0.1062    0.0625   -1.5204
    0.1063    0.0626   -1.5204
    0.1064    0.0626   -1.5204
    0.1065    0.0626   -1.5204
    0.1065    0.0626   -1.5204
    0.1066    0.0627   -1.5205
    0.1067    0.0627   -1.5205
    0.1068    0.0627   -1.5205
    0.1069    0.0628   -1.5206
    0.1070    0.0628   -1.5206
    0.0842    0.0072   -1.5086
    0.0821    0.0019   -1.5075
    0.0822    0.0019   -1.5075
    0.0823    0.0020   -1.5076
    0.0824    0.0020   -1.5076
    0.0825    0.0021   -1.5076
    0.0826    0.0021   -1.5075
    0.0827    0.0021   -1.5075
    0.0828    0.0022   -1.5075
    0.0829    0.0022   -1.5075
    0.0784   -0.0735   -1.4994
    0.0780   -0.0813   -1.4986
    0.0780   -0.0812   -1.4987
    0.0781   -0.0812   -1.4988
    0.0781   -0.0811   -1.4989
    0.0782   -0.0811   -1.4990
    0.0783   -0.0810   -1.4991
    0.0784   -0.0810   -1.4991
    0.0785   -0.0810   -1.4991
    0.0785   -0.0810   -1.4992
    0.0554   -0.1218   -1.5062
    0.0532   -0.1258   -1.5064
    0.0533   -0.1258   -1.5064
    0.0533   -0.1257   -1.5065
    0.0534   -0.1257   -1.5065
    0.0534   -0.1257   -1.5066
    0.0535   -0.1257   -1.5066
    0.0536   -0.1256   -1.5066
    0.0536   -0.1256   -1.5066
    0.0537   -0.1256   -1.5066
    0.0538   -0.1255   -1.5066
    0.0374   -0.1873   -1.5072
    0.0359   -0.1936   -1.5068
    0.0359   -0.1936   -1.5069
    0.0360   -0.1936   -1.5069
    0.0361   -0.1936   -1.5069
    0.0361   -0.1936   -1.5069
    0.0362   -0.1935   -1.5069
    0.0363   -0.1935   -1.5068
    0.0364   -0.1935   -1.5069
    0.0365   -0.1935   -1.5069
    0.0169   -0.2200   -1.5144
    0.0149   -0.2229   -1.5148
    0.0149   -0.2228   -1.5148
    0.0150   -0.2227   -1.5148
    0.0150   -0.2227   -1.5148
    0.0151   -0.2226   -1.5147
    0.0152   -0.2226   -1.5147
    0.0152   -0.2225   -1.5148
    0.0153   -0.2225   -1.5148
    0.0154   -0.2225   -1.5148
    0.0154   -0.2224   -1.5149
    0.0015   -0.2775   -1.5221
    0.0003   -0.2829   -1.5225
    0.0003   -0.2828   -1.5226
    0.0004   -0.2828   -1.5226
    0.0005   -0.2827   -1.5227
    0.0005   -0.2826   -1.5227
    0.0006   -0.2826   -1.5227
    0.0007   -0.2825   -1.5227
    0.0007   -0.2824   -1.5227
    0.0008   -0.2823   -1.5227
    0.0317   -0.3515   -1.5275
    0.0350   -0.3586   -1.5277
    0.0351   -0.3585   -1.5277
    0.0352   -0.3585   -1.5276
    0.0353   -0.3584   -1.5276
    0.0354   -0.3583   -1.5276
    0.0355   -0.3582   -1.5276
    0.0355   -0.3582   -1.5276
    0.0356   -0.3581   -1.5277
    0.0357   -0.3581   -1.5277
   -0.0088   -0.4204   -1.5282
   -0.0132   -0.4267   -1.5278
   -0.0131   -0.4266   -1.5279
   -0.0131   -0.4266   -1.5279
   -0.0130   -0.4265   -1.5279
   -0.0129   -0.4265   -1.5278
   -0.0127   -0.4265   -1.5278
   -0.0127   -0.4264   -1.5278
   -0.0126   -0.4264   -1.5277
   -0.0125   -0.4264   -1.5277
   -0.0124   -0.4263   -1.5278
   -0.0409   -0.4545   -1.5299
   -0.0438   -0.4573   -1.5298
   -0.0437   -0.4573   -1.5298
   -0.0436   -0.4572   -1.5298
   -0.0436   -0.4572   -1.5299
   -0.0435   -0.4571   -1.5299
   -0.0435   -0.4571   -1.5300
   -0.0434   -0.4570   -1.5300
   -0.0434   -0.4569   -1.5301
   -0.0433   -0.4568   -1.5302
   -0.1322   -0.4900   -1.5306
   -0.1420   -0.4936   -1.5302
   -0.1419   -0.4935   -1.5304
   -0.1419   -0.4934   -1.5305
   -0.1418   -0.4934   -1.5306
   -0.1417   -0.4933   -1.5307
   -0.1417   -0.4932   -1.5307
   -0.1416   -0.4932   -1.5307
   -0.1415   -0.4931   -1.5307
   -0.1415   -0.4930   -1.5308
   -0.1414   -0.4929   -1.5309
   -0.0663   -0.5472   -1.5471
   -0.0589   -0.5524   -1.5484
   -0.0589   -0.5523   -1.5484
   -0.0588   -0.5522   -1.5484
   -0.0587   -0.5522   -1.5485
   -0.0587   -0.5521   -1.5485
   -0.0586   -0.5521   -1.5486
   -0.0586   -0.5520   -1.5487
   -0.0585   -0.5520   -1.5488
   -0.0585   -0.5519   -1.5488
   -0.1055   -0.5819   -1.5664
   -0.1100   -0.5847   -1.5675
   -0.1100   -0.5847   -1.5675
   -0.1099   -0.5846   -1.5674
   -0.1099   -0.5845   -1.5674
   -0.1098   -0.5845   -1.5674
   -0.1098   -0.5844   -1.5674
   -0.1097   -0.5843   -1.5673
   -0.1097   -0.5843   -1.5673
   -0.1096   -0.5842   -1.5672
   -0.1095   -0.5842   -1.5671
   -0.0818   -0.5886   -1.5767
   -0.0789   -0.5890   -1.5775
   -0.0788   -0.5890   -1.5775
   -0.0787   -0.5889   -1.5775
   -0.0786   -0.5889   -1.5775
   -0.0785   -0.5888   -1.5775
   -0.0784   -0.5888   -1.5775
   -0.0782   -0.5888   -1.5776
   -0.0781   -0.5888   -1.5776
   -0.0780   -0.5888   -1.5776
   -0.1943   -0.5987   -1.5888
   -0.2067   -0.5997   -1.5898
   -0.2066   -0.5997   -1.5899
   -0.2064   -0.5997   -1.5899
   -0.2063   -0.5997   -1.5899
   -0.2062   -0.5997   -1.5899
   -0.2061   -0.5997   -1.5899
   -0.2059   -0.5997   -1.5899
   -0.2058   -0.5997   -1.5899
   -0.2057   -0.5996   -1.5899
   -0.2655   -0.5603   -1.5912
   -0.2720   -0.5559   -1.5915
   -0.2719   -0.5559   -1.5915
   -0.2717   -0.5559   -1.5915
   -0.2716   -0.5559   -1.5915
   -0.2714   -0.5559   -1.5915
   -0.2713   -0.5560   -1.5914
   -0.2712   -0.5560   -1.5914
   -0.2711   -0.5560   -1.5915
   -0.2710   -0.5560   -1.5915
   -0.2709   -0.5560   -1.5915
   -0.2806   -0.5177   -1.5886
   -0.2814   -0.5141   -1.5886
   -0.2813   -0.5141   -1.5886
   -0.2812   -0.5141   -1.5886
   -0.2811   -0.5141   -1.5886
   -0.2810   -0.5141   -1.5887
   -0.2809   -0.5141   -1.5887
   -0.2808   -0.5142   -1.5887
   -0.2807   -0.5142   -1.5886
   -0.2806   -0.5142   -1.5886
   -0.2408   -0.5075   -1.5871
   -0.2366   -0.5068   -1.5871
   -0.2365   -0.5067   -1.5872
   -0.2364   -0.5068   -1.5872
   -0.2362   -0.5068   -1.5872
   -0.2361   -0.5068   -1.5871
   -0.2360   -0.5068   -1.5871
   -0.2359   -0.5069   -1.5871
   -0.2358   -0.5069   -1.5871
   -0.2357   -0.5069   -1.5870
   -0.2356   -0.5069   -1.5870
   -0.2583   -0.4542   -1.5806
   -0.2606   -0.4487   -1.5800
   -0.2605   -0.4487   -1.5801
   -0.2605   -0.4487   -1.5802
   -0.2604   -0.4487   -1.5801
   -0.2603   -0.4487   -1.5801
   -0.2602   -0.4488   -1.5800
   -0.2601   -0.4488   -1.5799
   -0.2601   -0.4488   -1.5798
   -0.2601   -0.4488   -1.5798
   -0.2452   -0.4024   -1.5708
   -0.2436   -0.3973   -1.5701
   -0.2435   -0.3974   -1.5702
   -0.2435   -0.3974   -1.5702
   -0.2435   -0.3975   -1.5702
   -0.2434   -0.3975   -1.5702
   -0.2434   -0.3976   -1.5702
   -0.2433   -0.3976   -1.5702
   -0.2433   -0.3977   -1.5702
   -0.2433   -0.3978   -1.5703
   -0.2170   -0.3280   -1.5562
   -0.2142   -0.3204   -1.5553
   -0.2142   -0.3205   -1.5553
   -0.2141   -0.3205   -1.5554
   -0.2140   -0.3206   -1.5554
   -0.2140   -0.3207   -1.5555
   -0.2139   -0.3207   -1.5555
   -0.2139   -0.3208   -1.5556
   -0.2138   -0.3209   -1.5556
   -0.2138   -0.3209   -1.5557
   -0.2137   -0.3210   -1.5557
   -0.2273   -0.2770   -1.5434
   -0.2323   -0.2718   -1.5408
   -0.2322   -0.2718   -1.5409
   -0.2321   -0.2719   -1.5410
   -0.2321   -0.2720   -1.5411
   -0.2320   -0.2721   -1.5411
   -0.2319   -0.2722   -1.5412
   -0.2319   -0.2723   -1.5412
   -0.2318   -0.2723   -1.5412
   -0.2317   -0.2724   -1.5412
   -0.1951   -0.2226   -1.5354
   -0.1915   -0.2176   -1.5352
   -0.1914   -0.2177   -1.5352
   -0.1913   -0.2177   -1.5352
   -0.1913   -0.2178   -1.5351
   -0.1912   -0.2178   -1.5351
   -0.1911   -0.2178   -1.5351
   -0.1910   -0.2178   -1.5352
   -0.1909   -0.2178   -1.5352
   -0.1908   -0.2178   -1.5352
   -0.1908   -0.2178   -1.5352
   -0.1805   -0.2112   -1.5268
   -0.1796   -0.2106   -1.5263
   -0.1795   -0.2106   -1.5264
   -0.1794   -0.2106   -1.5264
   -0.1793   -0.2106   -1.5264
   -0.1792   -0.2106   -1.5265
   -0.1791   -0.2106   -1.5265
   -0.1791   -0.2106   -1.5265
   -0.1790   -0.2106   -1.5266
   -0.1789   -0.2107   -1.5265
   -0.1731   -0.1534   -1.5073
   -0.1726   -0.1472   -1.5057
   -0.1725   -0.1472   -1.5056
   -0.1724   -0.1472   -1.5056
   -0.1723   -0.1473   -1.5055
   -0.1723   -0.1473   -1.5055
   -0.1722   -0.1474   -1.5055
   -0.1721   -0.1475   -1.5055
   -0.1720   -0.1476   -1.5056
   -0.1720   -0.1476   -1.5056
   -0.1334   -0.0989   -1.4963
   -0.1291   -0.0934   -1.4956
   -0.1291   -0.0935   -1.4957
   -0.1290   -0.0935   -1.4958
   -0.1290   -0.0936   -1.4960
   -0.1289   -0.0936   -1.4961
   -0.1289   -0.0937   -1.4963
   -0.1288   -0.0938   -1.4964
   -0.1288   -0.0938   -1.4965
   -0.1287   -0.0939   -1.4966
   -0.1287   -0.0939   -1.4966
   -0.1606   -0.0428   -1.4694
   -0.1637   -0.0378   -1.4670
   -0.1637   -0.0379   -1.4670
   -0.1636   -0.0379   -1.4670
   -0.1635   -0.0380   -1.4670
   -0.1634   -0.0380   -1.4670
   -0.1633   -0.0381   -1.4670
   -0.1633   -0.0381   -1.4670
   -0.1631   -0.0381   -1.4670
   -0.1630   -0.0381   -1.4669
   -0.1037   -0.0396   -1.4794
   -0.0976   -0.0398   -1.4810
   -0.0976   -0.0399   -1.4810
   -0.0975   -0.0400   -1.4810
   -0.0975   -0.0402   -1.4810
   -0.0974   -0.0403   -1.4810
   -0.0974   -0.0404   -1.4810
   -0.0973   -0.0404   -1.4810
   -0.0972   -0.0405   -1.4811
   -0.0972   -0.0405   -1.4812
   -0.0971   -0.0405   -1.4812
   -0.1166    0.0610   -1.4639
   -0.1186    0.0716   -1.4621
   -0.1186    0.0715   -1.4621
   -0.1185    0.0714   -1.4622
   -0.1185    0.0713   -1.4622
   -0.1185    0.0712   -1.4623
   -0.1184    0.0712   -1.4623
   -0.1184    0.0712   -1.4624
   -0.1183    0.0712   -1.4625
   -0.1183    0.0711   -1.4625
   -0.1182    0.0711   -1.4626
   -0.0999    0.1193   -1.4609
   -0.0980    0.1240   -1.4608
   -0.0980    0.1240   -1.4609
   -0.0979    0.1239   -1.4609
   -0.0978    0.1239   -1.4609
   -0.0977    0.1239   -1.4609
   -0.0976    0.1238   -1.4609
   -0.0976    0.1238   -1.4609
   -0.0975    0.1237   -1.4608
   -0.0974    0.1237   -1.4608
   -0.0519    0.1344   -1.4625
   -0.0471    0.1355   -1.4630
   -0.0471    0.1354   -1.4630
   -0.0470    0.1353   -1.4630
   -0.0470    0.1352   -1.4631
   -0.0469    0.1352   -1.4631
   -0.0468    0.1352   -1.4631
   -0.0467    0.1351   -1.4632
   -0.0466    0.1351   -1.4633
   -0.0466    0.1350   -1.4633
   -0.0282    0.1814   -1.4596
   -0.0263    0.1860   -1.4595
   -0.0263    0.1859   -1.4596
   -0.0262    0.1858   -1.4597
   -0.0261    0.1857   -1.4597
   -0.0260    0.1856   -1.4598
   -0.0259    0.1855   -1.4599
   -0.0258    0.1854   -1.4600
   -0.0257    0.1854   -1.4601
   -0.0255    0.1853   -1.4602
    0.0048    0.1962   -1.4647
    0.0081    0.1973   -1.4652
    0.0082    0.1972   -1.4653
    0.0083    0.1971   -1.4653
    0.0084    0.1970   -1.4654
    0.0085    0.1970   -1.4654
    0.0086    0.1969   -1.4654
    0.0086    0.1969   -1.4655
    0.0087    0.1968   -1.4655
    0.0088    0.1968   -1.4656
    0.0089    0.1967   -1.4656
    0.0057    0.2201   -1.4772
    0.0054    0.2225   -1.4782
    0.0055    0.2224   -1.4782
    0.0055    0.2223   -1.4782
    0.0056    0.2223   -1.4782
    0.0057    0.2222   -1.4782
    0.0058    0.2221   -1.4781
    0.0059    0.2220   -1.4780
    0.0060    0.2219   -1.4779
    0.0060    0.2218   -1.4778
    0.0061    0.2218   -1.4777
    0.0968    0.2526   -1.4964
    0.1054    0.2555   -1.4984
    0.1055    0.2555   -1.4984
    0.1056    0.2554   -1.4984
    0.1056    0.2554   -1.4984
    0.1057    0.2554   -1.4985
    0.1058    0.2555   -1.4985
    0.1059    0.2555   -1.4986
    0.1059    0.2555   -1.4987
    0.1060    0.2555   -1.4988
    0.0876    0.2269   -1.4901
    0.0857    0.2239   -1.4893
    0.0858    0.2239   -1.4894
    0.0859    0.2240   -1.4894
    0.0860    0.2240   -1.4894
    0.0861    0.2240   -1.4895
    0.0862    0.2241   -1.4895
    0.0862    0.2241   -1.4895
    0.0863    0.2241   -1.4895
    0.0864    0.2241   -1.4896
    0.1617    0.1303   -1.4906
    0.1696    0.1206   -1.4906
    0.1696    0.1207   -1.4907
    0.1697    0.1208   -1.4908
    0.1698    0.1208   -1.4908
    0.1698    0.1208   -1.4909
    0.1699    0.1209   -1.4909
    0.1700    0.1209   -1.4910
    0.1701    0.1210   -1.4910
    0.1701    0.1210   -1.4911
    0.1617    0.0937   -1.5012
    0.1609    0.0910   -1.5017
    0.1610    0.0910   -1.5018
    0.1610    0.0911   -1.5018
    0.1611    0.0911   -1.5018
    0.1612    0.0912   -1.5018
    0.1613    0.0912   -1.5018
    0.1614    0.0912   -1.5018
    0.1614    0.0912   -1.5018
    0.1615    0.0913   -1.5018
    0.1616    0.0913   -1.5018
    0.2171    0.0083   -1.5085
    0.2230   -0.0002   -1.5086
    0.2230   -0.0002   -1.5087
    0.2231   -0.0001   -1.5087
    0.2232   -0.0001   -1.5088
    0.2232   -0.0000   -1.5088
    0.2233   -0.0000   -1.5089
    0.2234    0.0000   -1.5089
    0.2235    0.0001   -1.5090
    0.2236    0.0001   -1.5090
    0.2236    0.0001   -1.5090
    0.1735   -0.0462   -1.5131
    0.1687   -0.0507   -1.5130
    0.1688   -0.0507   -1.5130
    0.1689   -0.0507   -1.5130
    0.1690   -0.0507   -1.5130
    0.1690   -0.0507   -1.5130
    0.1691   -0.0507   -1.5131
    0.1692   -0.0507   -1.5131
    0.1693   -0.0507   -1.5131
    0.1693   -0.0506   -1.5131
    0.2022   -0.0737   -1.5293
    0.2056   -0.0760   -1.5307
    0.2057   -0.0760   -1.5307
    0.2058   -0.0760   -1.5306
    0.2059   -0.0760   -1.5306
    0.2060   -0.0760   -1.5305
    0.2061   -0.0760   -1.5305
    0.2062   -0.0760   -1.5305
    0.2063   -0.0760   -1.5305
    0.2064   -0.0759   -1.5305
    0.2138   -0.0934   -1.5354
    0.2145   -0.0950   -1.5358
    0.2147   -0.0949   -1.5358
    0.2147   -0.0949   -1.5359
    0.2149   -0.0949   -1.5359
    0.2150   -0.0949   -1.5359
    0.2151   -0.0949   -1.5359
    0.2152   -0.0949   -1.5359
    0.2153   -0.0949   -1.5359
    0.2154   -0.0949   -1.5359
    0.2155   -0.0949   -1.5359
    0.2566   -0.1558   -1.5331
    0.2609   -0.1621   -1.5331
    0.2610   -0.1621   -1.5331
    0.2611   -0.1620   -1.5330
    0.2612   -0.1620   -1.5330
    0.2612   -0.1620   -1.5331
    0.2613   -0.1619   -1.5331
    0.2614   -0.1619   -1.5331
    0.2614   -0.1618   -1.5332
    0.2615   -0.1617   -1.5332
    0.2528   -0.2078   -1.5250
    0.2519   -0.2128   -1.5237
    0.2520   -0.2127   -1.5237
    0.2521   -0.2126   -1.5236
    0.2521   -0.2126   -1.5236
    0.2522   -0.2125   -1.5235
    0.2523   -0.2125   -1.5235
    0.2524   -0.2124   -1.5234
    0.2524   -0.2123   -1.5234
    0.2525   -0.2123   -1.5234
    0.2526   -0.2122   -1.5234
    0.3159   -0.2921   -1.5085
    0.3219   -0.2998   -1.5073
    0.3220   -0.2998   -1.5074
    0.3221   -0.2998   -1.5074
    0.3221   -0.2998   -1.5074
    0.3222   -0.2997   -1.5074
    0.3223   -0.2996   -1.5074
    0.3224   -0.2996   -1.5074
    0.3225   -0.2995   -1.5074
    0.3226   -0.2995   -1.5075
    0.3010   -0.3071   -1.4992
    0.2988   -0.3079   -1.4985
    0.2989   -0.3078   -1.4985
    0.2990   -0.3078   -1.4985
    0.2991   -0.3077   -1.4986
    0.2991   -0.3076   -1.4986
    0.2992   -0.3074   -1.4986
    0.2993   -0.3073   -1.4987
    0.2994   -0.3072   -1.4987
    0.2995   -0.3071   -1.4988
    0.3746   -0.3310   -1.4861
    0.3823   -0.3336   -1.4855
    0.3824   -0.3336   -1.4855
    0.3825   -0.3336   -1.4855
    0.3827   -0.3335   -1.4856
    0.3828   -0.3335   -1.4856
    0.3829   -0.3335   -1.4857
    0.3829   -0.3334   -1.4858
    0.3830   -0.3334   -1.4859
    0.3831   -0.3333   -1.4861
    0.3831   -0.3332   -1.4862
    0.3383   -0.3795   -1.4569
    0.3344   -0.3836   -1.4551
    0.3344   -0.3836   -1.4552
    0.3344   -0.3836   -1.4554
    0.3344   -0.3835   -1.4555
    0.3344   -0.3833   -1.4556
    0.3345   -0.3831   -1.4557
    0.3345   -0.3831   -1.4557
    0.3346   -0.3831   -1.4556
    0.3347   -0.3832   -1.4557
    0.3806   -0.3780   -1.4759
    0.3852   -0.3774   -1.4776
    0.3852   -0.3774   -1.4776
    0.3852   -0.3773   -1.4776
    0.3853   -0.3772   -1.4776
    0.3853   -0.3771   -1.4776
    0.3854   -0.3770   -1.4776
    0.3854   -0.3770   -1.4776
    0.3855   -0.3769   -1.4776
    0.3856   -0.3768   -1.4776
    0.3856   -0.3767   -1.4776
    0.4220   -0.3464   -1.4859
    0.4252   -0.3438   -1.4865
    0.4252   -0.3437   -1.4864
    0.4253   -0.3437   -1.4864
    0.4253   -0.3436   -1.4864
    0.4254   -0.3435   -1.4864
    0.4254   -0.3435   -1.4864
    0.4254   -0.3434   -1.4865
    0.4255   -0.3434   -1.4865
    0.4255   -0.3433   -1.4865
    0.4483   -0.3088   -1.4930
    0.4506   -0.3054   -1.4935
    0.4506   -0.3054   -1.4935
    0.4507   -0.3053   -1.4935
    0.4508   -0.3053   -1.4935
    0.4508   -0.3053   -1.4936
    0.4509   -0.3053   -1.4936
    0.4509   -0.3053   -1.4936
    0.4510   -0.3053   -1.4937
    0.4511   -0.3053   -1.4937
    0.4762   -0.2687   -1.4947
    0.4788   -0.2649   -1.4951
    0.4789   -0.2649   -1.4952
    0.4790   -0.2649   -1.4952
    0.4791   -0.2649   -1.4953
    0.4791   -0.2649   -1.4953
    0.4792   -0.2648   -1.4954
    0.4793   -0.2648   -1.4954
    0.4793   -0.2648   -1.4955
    0.4794   -0.2648   -1.4955
    0.4795   -0.2648   -1.4955
    0.4861   -0.2286   -1.5012
    0.4868   -0.2248   -1.5018
    0.4869   -0.2248   -1.5018
    0.4870   -0.2248   -1.5019
    0.4870   -0.2248   -1.5019
    0.4871   -0.2248   -1.5019
    0.4871   -0.2248   -1.5020
    0.4872   -0.2248   -1.5020
    0.4873   -0.2248   -1.5020
    0.4874   -0.2248   -1.5021
    0.4762   -0.1707   -1.5111
    0.4751   -0.1647   -1.5119
    0.4752   -0.1647   -1.5119
    0.4752   -0.1648   -1.5119
    0.4753   -0.1648   -1.5120
    0.4754   -0.1648   -1.5120
    0.4755   -0.1648   -1.5120
    0.4755   -0.1648   -1.5120
    0.4756   -0.1647   -1.5120
    0.4757   -0.1648   -1.5120
    0.4758   -0.1648   -1.5121
    0.4784   -0.1013   -1.5182
    0.4786   -0.0950   -1.5188
    0.4787   -0.0950   -1.5188
    0.4788   -0.0950   -1.5188
    0.4789   -0.0950   -1.5188
    0.4789   -0.0950   -1.5189
    0.4790   -0.0950   -1.5189
    0.4791   -0.0951   -1.5190
    0.4791   -0.0951   -1.5190
    0.4792   -0.0951   -1.5190
    0.4703   -0.0423   -1.5238
    0.4694   -0.0368   -1.5241
    0.4695   -0.0368   -1.5241
    0.4696   -0.0368   -1.5241
    0.4696   -0.0368   -1.5241
    0.4697   -0.0368   -1.5241
    0.4697   -0.0368   -1.5242
    0.4698   -0.0368   -1.5242
    0.4699   -0.0369   -1.5242
    0.4699   -0.0369   -1.5242
    0.4700    0.0057   -1.5270
    0.4700    0.0103   -1.5271
    0.4700    0.0103   -1.5271
    0.4701    0.0103   -1.5272
    0.4702    0.0103   -1.5272
    0.4702    0.0103   -1.5272
    0.4703    0.0103   -1.5272
    0.4704    0.0103   -1.5273
    0.4704    0.0102   -1.5273
    0.4705    0.0102   -1.5273
    0.4706    0.0102   -1.5273
    0.4242    0.0397   -1.5275
    0.4194    0.0428   -1.5273
    0.4194    0.0427   -1.5273
    0.4195    0.0427   -1.5273
    0.4196    0.0427   -1.5273
    0.4197    0.0427   -1.5273
    0.4198    0.0427   -1.5273
    0.4199    0.0427   -1.5273
    0.4200    0.0427   -1.5274
    0.4201    0.0427   -1.5274
    0.3762    0.0639   -1.5238
    0.3715    0.0661   -1.5234
    0.3716    0.0662   -1.5234
    0.3717    0.0662   -1.5235
    0.3718    0.0662   -1.5235
    0.3719    0.0662   -1.5235
    0.3720    0.0662   -1.5235
    0.3721    0.0662   -1.5235
    0.3722    0.0662   -1.5235
    0.3724    0.0662   -1.5235
    0.3725    0.0661   -1.5235
    0.3696    0.0582   -1.5300
    0.3694    0.0574   -1.5305
    0.3696    0.0574   -1.5305
    0.3697    0.0574   -1.5305
    0.3698    0.0574   -1.5305
    0.3699    0.0574   -1.5305
    0.3700    0.0574   -1.5306
    0.3701    0.0573   -1.5306
    0.3702    0.0573   -1.5306
    0.3703    0.0573   -1.5307
    0.2868    0.0597   -1.5220
    0.2779    0.0600   -1.5210
    0.2780    0.0600   -1.5210
    0.2781    0.0600   -1.5210
    0.2782    0.0599   -1.5210
    0.2783    0.0599   -1.5210
    0.2784    0.0599   -1.5210
    0.2785    0.0599   -1.5210
    0.2786    0.0599   -1.5210
    0.2787    0.0598   -1.5210
    0.2560    0.0727   -1.5200
    0.2537    0.0740   -1.5198
    0.2538    0.0739   -1.5198
    0.2539    0.0739   -1.5198
    0.2540    0.0739   -1.5198
    0.2541    0.0739   -1.5198
    0.2541    0.0739   -1.5198
    0.2542    0.0739   -1.5198
    0.2543    0.0738   -1.5198
    0.2544    0.0738   -1.5198
    0.2545    0.0738   -1.5198
    0.2151    0.0881   -1.5097
    0.2111    0.0896   -1.5086
    0.2112    0.0895   -1.5087
    0.2113    0.0895   -1.5087
    0.2114    0.0895   -1.5087
    0.2115    0.0894   -1.5087
    0.2116    0.0894   -1.5087
    0.2117    0.0894   -1.5087
    0.2118    0.0893   -1.5087
    0.2119    0.0893   -1.5087
    0.1701    0.0810   -1.4967
    0.1656    0.0801   -1.4954
    0.1657    0.0801   -1.4954
    0.1658    0.0801   -1.4954
    0.1659    0.0801   -1.4954
    0.1660    0.0801   -1.4954
    0.1661    0.0801   -1.4954
    0.1662    0.0801   -1.4955
    0.1662    0.0801   -1.4955
    0.1664    0.0801   -1.4955
    0.1664    0.0801   -1.4955
    0.1195    0.0657   -1.4808
    0.1151    0.0643   -1.4794
    0.1152    0.0644   -1.4795
    0.1153    0.0644   -1.4795
    0.1154    0.0644   -1.4795
    0.1155    0.0644   -1.4796
    0.1156    0.0644   -1.4796
    0.1157    0.0644   -1.4796
    0.1158    0.0644   -1.4796
    0.1158    0.0643   -1.4797
    0.0882    0.0479   -1.4637
    0.0854    0.0462   -1.4623
    0.0855    0.0462   -1.4623
    0.0855    0.0461   -1.4623
    0.0856    0.0462   -1.4624
    0.0857    0.0462   -1.4624
    0.0858    0.0462   -1.4623
    0.0859    0.0462   -1.4623
    0.0860    0.0462   -1.4623
    0.0860    0.0461   -1.4623
    0.1018    0.0018   -1.4612
    0.1035   -0.0028   -1.4613
    0.1036   -0.0027   -1.4613
    0.1037   -0.0027   -1.4614
    0.1037   -0.0027   -1.4614
    0.1038   -0.0027   -1.4615
    0.1039   -0.0026   -1.4615
    0.1040   -0.0026   -1.4616
    0.1041   -0.0026   -1.4616
    0.1041   -0.0026   -1.4616
    0.1042   -0.0026   -1.4617
    0.0258    0.0062   -1.4527
    0.0176    0.0072   -1.4515
    0.0177    0.0073   -1.4515
    0.0178    0.0073   -1.4515
    0.0179    0.0073   -1.4515
    0.0180    0.0073   -1.4515
    0.0181    0.0073   -1.4515
    0.0182    0.0073   -1.4515
    0.0182    0.0073   -1.4515
    0.0184    0.0074   -1.4515
    0.0399   -0.0509   -1.4499
    0.0424   -0.0573   -1.4498
    0.0425   -0.0573   -1.4498
    0.0426   -0.0573   -1.4497
    0.0426   -0.0573   -1.4497
    0.0427   -0.0573   -1.4497
    0.0428   -0.0573   -1.4498
    0.0429   -0.0573   -1.4498
    0.0430   -0.0573   -1.4498
    0.0431   -0.0572   -1.4499
    0.0432   -0.0572   -1.4500
   -0.0239   -0.0717   -1.4436
   -0.0303   -0.0731   -1.4429
   -0.0303   -0.0731   -1.4430
   -0.0302   -0.0731   -1.4430
   -0.0301   -0.0731   -1.4431
   -0.0301   -0.0731   -1.4431
   -0.0300   -0.0731   -1.4432
   -0.0299   -0.0731   -1.4432
   -0.0298   -0.0731   -1.4432
   -0.0298   -0.0731   -1.4432
   -0.0284   -0.1072   -1.4372
   -0.0282   -0.1107   -1.4369
   -0.0281   -0.1107   -1.4369
   -0.0281   -0.1107   -1.4369
   -0.0280   -0.1107   -1.4368
   -0.0279   -0.1107   -1.4368
   -0.0278   -0.1107   -1.4368
   -0.0278   -0.1107   -1.4368
   -0.0277   -0.1107   -1.4369
   -0.0276   -0.1107   -1.4369
   -0.0276   -0.1106   -1.4370
   -0.0432   -0.1399   -1.4404
   -0.0447   -0.1429   -1.4407
   -0.0447   -0.1429   -1.4407
   -0.0446   -0.1429   -1.4408
   -0.0445   -0.1429   -1.4408
   -0.0444   -0.1429   -1.4409
   -0.0444   -0.1429   -1.4410
   -0.0443   -0.1429   -1.4410
   -0.0442   -0.1429   -1.4410
   -0.0441   -0.1429   -1.4411
   -0.1076   -0.1580   -1.4359
   -0.1145   -0.1597   -1.4352
   -0.1145   -0.1597   -1.4352
   -0.1144   -0.1597   -1.4352
   -0.1143   -0.1597   -1.4352
   -0.1142   -0.1598   -1.4352
   -0.1141   -0.1598   -1.4352
   -0.1140   -0.1598   -1.4351
   -0.1140   -0.1598   -1.4351
   -0.1139   -0.1598   -1.4351
   -0.1125   -0.1894   -1.4333
   -0.1123   -0.1927   -1.4332
   -0.1122   -0.1927   -1.4332
   -0.1122   -0.1927   -1.4332
   -0.1121   -0.1927   -1.4332
   -0.1120   -0.1927   -1.4332
   -0.1119   -0.1927   -1.4332
   -0.1118   -0.1927   -1.4332
   -0.1117   -0.1927   -1.4332
   -0.1117   -0.1927   -1.4333
   -0.1116   -0.1926   -1.4333
   -0.1644   -0.2110   -1.4208
   -0.1694   -0.2127   -1.4197
   -0.1694   -0.2127   -1.4197
   -0.1693   -0.2126   -1.4197
   -0.1692   -0.2126   -1.4198
   -0.1691   -0.2125   -1.4198
   -0.1691   -0.2125   -1.4198
   -0.1690   -0.2124   -1.4198
   -0.1689   -0.2123   -1.4198
   -0.1689   -0.2123   -1.4198
   -0.1661   -0.2847   -1.4109
   -0.1659   -0.2920   -1.4103
   -0.1658   -0.2919   -1.4103
   -0.1657   -0.2919   -1.4103
   -0.1656   -0.2918   -1.4104
   -0.1655   -0.2918   -1.4104
   -0.1654   -0.2917   -1.4104
   -0.1654   -0.2917   -1.4104
   -0.1653   -0.2917   -1.4105
   -0.1652   -0.2916   -1.4105
   -0.1651   -0.2916   -1.4106
   -0.2259   -0.2997   -1.3995
   -0.2321   -0.3005   -1.3984
   -0.2320   -0.3005   -1.3985
   -0.2319   -0.3005   -1.3985
   -0.2318   -0.3005   -1.3986
   -0.2317   -0.3004   -1.3986
   -0.2316   -0.3004   -1.3986
   -0.2315   -0.3004   -1.3987
   -0.2314   -0.3003   -1.3987
   -0.2313   -0.3003   -1.3988
   -0.2766   -0.2856   -1.3905
   -0.2815   -0.2839   -1.3896
   -0.2815   -0.2839   -1.3896
   -0.2814   -0.2838   -1.3897
   -0.2813   -0.2838   -1.3897
   -0.2812   -0.2837   -1.3897
   -0.2811   -0.2837   -1.3897
   -0.2810   -0.2837   -1.3897
   -0.2809   -0.2837   -1.3897
   -0.2808   -0.2837   -1.3897
   -0.2556   -0.3099   -1.3820
   -0.2528   -0.3128   -1.3815
   -0.2527   -0.3128   -1.3815
   -0.2526   -0.3128   -1.3815
   -0.2525   -0.3128   -1.3815
   -0.2524   -0.3128   -1.3815
   -0.2523   -0.3129   -1.3815
   -0.2522   -0.3129   -1.3815
   -0.2521   -0.3130   -1.3816
   -0.2520   -0.3130   -1.3816
   -0.2518   -0.3131   -1.3816
   -0.2807   -0.2607   -1.3812
   -0.2835   -0.2557   -1.3814
   -0.2834   -0.2558   -1.3815
   -0.2833   -0.2559   -1.3815
   -0.2832   -0.2559   -1.3815
   -0.2831   -0.2560   -1.3815
   -0.2829   -0.2561   -1.3815
   -0.2828   -0.2561   -1.3816
   -0.2827   -0.2562   -1.3816
   -0.2826   -0.2562   -1.3816
   -0.2833   -0.2125   -1.3787
   -0.2833   -0.2080   -1.3786
   -0.2832   -0.2081   -1.3786
   -0.2831   -0.2082   -1.3785
   -0.2830   -0.2083   -1.3785
   -0.2829   -0.2084   -1.3785
   -0.2828   -0.2085   -1.3784
   -0.2827   -0.2086   -1.3784
   -0.2826   -0.2087   -1.3784
   -0.2825   -0.2088   -1.3784
   -0.2824   -0.2089   -1.3784
   -0.2569   -0.1651   -1.3830
   -0.2543   -0.1608   -1.3838
   -0.2542   -0.1608   -1.3838
   -0.2541   -0.1610   -1.3838
   -0.2540   -0.1610   -1.3838
   -0.2539   -0.1611   -1.3838
   -0.2539   -0.1612   -1.3838
   -0.2538   -0.1613   -1.3838
   -0.2537   -0.1614   -1.3838
   -0.2536   -0.1614   -1.3838
   -0.2227   -0.0896   -1.3926
   -0.2193   -0.0818   -1.3939
   -0.2193   -0.0819   -1.3939
   -0.2192   -0.0819   -1.3939
   -0.2192   -0.0819   -1.3940
   -0.2191   -0.0820   -1.3940
   -0.2190   -0.0820   -1.3941
   -0.2190   -0.0821   -1.3941
   -0.2190   -0.0822   -1.3941
   -0.2189   -0.0822   -1.3941
   -0.2188   -0.0823   -1.3941
   -0.1801   -0.0387   -1.3892
   -0.1765   -0.0347   -1.3893
   -0.1764   -0.0347   -1.3894
   -0.1763   -0.0347   -1.3894
   -0.1762   -0.0347   -1.3894
   -0.1762   -0.0348   -1.3894
   -0.1761   -0.0348   -1.3894
   -0.1760   -0.0348   -1.3894
   -0.1760   -0.0349   -1.3894
   -0.1759   -0.0349   -1.3894
   -0.1075   -0.0284   -1.3883
   -0.1007   -0.0278   -1.3888
   -0.1006   -0.0278   -1.3888
   -0.1005   -0.0279   -1.3888
   -0.1005   -0.0279   -1.3888
   -0.1004   -0.0279   -1.3888
   -0.1004   -0.0280   -1.3889
   -0.1003   -0.0280   -1.3889
   -0.1003   -0.0281   -1.3889
   -0.1003   -0.0282   -1.3890
   -0.0869    0.0375   -1.3863
   -0.0855    0.0442   -1.3865
   -0.0855    0.0441   -1.3866
   -0.0854    0.0441   -1.3866
   -0.0854    0.0441   -1.3867
   -0.0853    0.0440   -1.3867
   -0.0853    0.0440   -1.3868
   -0.0852    0.0439   -1.3868
   -0.0852    0.0439   -1.3868
   -0.0851    0.0439   -1.3868
   -0.0850    0.0438   -1.3868
   -0.0349    0.0609   -1.3820
   -0.0296    0.0626   -1.3819
   -0.0296    0.0626   -1.3819
   -0.0295    0.0625   -1.3820
   -0.0294    0.0625   -1.3820
   -0.0294    0.0625   -1.3820
   -0.0293    0.0624   -1.3820
   -0.0292    0.0624   -1.3820
   -0.0292    0.0624   -1.3820
   -0.0291    0.0624   -1.3821
    0.0177    0.0947   -1.3834
    0.0229    0.0982   -1.3838
    0.0230    0.0982   -1.3838
    0.0231    0.0982   -1.3838
    0.0232    0.0981   -1.3839
    0.0233    0.0981   -1.3839
    0.0234    0.0980   -1.3839
    0.0235    0.0980   -1.3839
    0.0236    0.0979   -1.3840
    0.0237    0.0979   -1.3840
    0.0238    0.0978   -1.3840
    0.0521    0.1359   -1.3869
    0.0549    0.1396   -1.3873
    0.0550    0.1396   -1.3873
    0.0551    0.1396   -1.3873
    0.0552    0.1395   -1.3874
    0.0553    0.1395   -1.3874
    0.0554    0.1394   -1.3874
    0.0555    0.1394   -1.3874
    0.0556    0.1394   -1.3874
    0.0557    0.1393   -1.3874
    0.1004    0.1493   -1.3856
    0.1051    0.1503   -1.3856
    0.1052    0.1503   -1.3856
    0.1053    0.1502   -1.3857
    0.1054    0.1502   -1.3857
    0.1055    0.1502   -1.3857
    0.1055    0.1502   -1.3858
    0.1056    0.1502   -1.3858
    0.1057    0.1501   -1.3858
    0.1058    0.1501   -1.3858
    0.1427    0.1655   -1.3884
    0.1465    0.1671   -1.3887
    0.1466    0.1671   -1.3887
    0.1467    0.1671   -1.3887
    0.1468    0.1671   -1.3887
    0.1468    0.1671   -1.3887
    0.1469    0.1671   -1.3886
    0.1470    0.1671   -1.3886
    0.1471    0.1671   -1.3886
    0.1472    0.1671   -1.3887
    0.1472    0.1671   -1.3887
    0.1673    0.1724   -1.3921
    0.1694    0.1730   -1.3924
    0.1695    0.1730   -1.3925
    0.1696    0.1730   -1.3925
    0.1696    0.1730   -1.3926
    0.1697    0.1730   -1.3926
    0.1698    0.1730   -1.3926
    0.1698    0.1730   -1.3927
    0.1699    0.1730   -1.3927
    0.1700    0.1731   -1.3927
    0.2057    0.1562   -1.3918
    0.2097    0.1544   -1.3916
    0.2098    0.1544   -1.3916
    0.2099    0.1544   -1.3916
    0.2099    0.1544   -1.3917
    0.2100    0.1545   -1.3917
    0.2100    0.1545   -1.3917
    0.2101    0.1545   -1.3918
    0.2102    0.1545   -1.3918
    0.2102    0.1545   -1.3918
    0.2103    0.1545   -1.3919
    0.2328    0.1467   -1.3980
    0.2350    0.1460   -1.3984
    0.2351    0.1461   -1.3984
    0.2352    0.1461   -1.3984
    0.2352    0.1461   -1.3984
    0.2353    0.1461   -1.3985
    0.2354    0.1461   -1.3985
    0.2354    0.1461   -1.3985
    0.2355    0.1461   -1.3986
    0.2356    0.1462   -1.3987
    0.2356    0.1462   -1.3988
    0.2039    0.1216   -1.4024
    0.2007    0.1192   -1.4025
    0.2007    0.1192   -1.4025
    0.2008    0.1193   -1.4025
    0.2009    0.1193   -1.4025
    0.2009    0.1193   -1.4024
    0.2010    0.1193   -1.4024
    0.2011    0.1194   -1.4024
    0.2012    0.1194   -1.4023
    0.2013    0.1194   -1.4023
    0.2522    0.1203   -1.4111
    0.2579    0.1205   -1.4119
    0.2579    0.1205   -1.4119
    0.2580    0.1205   -1.4119
    0.2581    0.1206   -1.4119
    0.2581    0.1206   -1.4118
    0.2582    0.1206   -1.4119
    0.2583    0.1207   -1.4119
    0.2583    0.1207   -1.4119
    0.2584    0.1208   -1.4119
    0.2943    0.0976   -1.4075
    0.2984    0.0951   -1.4069
    0.2984    0.0951   -1.4069
    0.2985    0.0952   -1.4069
    0.2986    0.0952   -1.4069
    0.2987    0.0952   -1.4069
    0.2988    0.0953   -1.4070
    0.2989    0.0953   -1.4070
    0.2990    0.0953   -1.4070
    0.2991    0.0953   -1.4071
    0.2992    0.0954   -1.4071
    0.2631    0.0512   -1.4092
    0.2597    0.0471   -1.4090
    0.2598    0.0471   -1.4090
    0.2599    0.0472   -1.4091
    0.2600    0.0472   -1.4092
    0.2601    0.0472   -1.4092
    0.2602    0.0473   -1.4092
    0.2603    0.0473   -1.4092
    0.2603    0.0474   -1.4092
    0.2604    0.0474   -1.4092
    0.2651    0.0074   -1.4090
    0.2657    0.0033   -1.4087
    0.2657    0.0033   -1.4087
    0.2658    0.0034   -1.4087
    0.2659    0.0035   -1.4087
    0.2659    0.0035   -1.4086
    0.2660    0.0036   -1.4086
    0.2661    0.0037   -1.4086
    0.2662    0.0038   -1.4086
    0.2662    0.0038   -1.4087
    0.2310   -0.0480   -1.4089
    0.2281   -0.0519   -1.4087
    0.2282   -0.0518   -1.4088
    0.2282   -0.0517   -1.4088
    0.2282   -0.0516   -1.4088
    0.2283   -0.0516   -1.4087
    0.2283   -0.0515   -1.4087
    0.2284   -0.0514   -1.4087
    0.2285   -0.0514   -1.4086
    0.2285   -0.0513   -1.4085
    0.2989   -0.0855   -1.3944
    0.3044   -0.0882   -1.3935
    0.3045   -0.0882   -1.3935
    0.3046   -0.0881   -1.3934
    0.3047   -0.0881   -1.3934
    0.3048   -0.0881   -1.3934
    0.3049   -0.0880   -1.3934
    0.3050   -0.0880   -1.3934
    0.3051   -0.0880   -1.3934
    0.3052   -0.0880   -1.3934
    0.3053   -0.0880   -1.3935
    0.2367   -0.1042   -1.3914
    0.2295   -0.1060   -1.3913
    0.2296   -0.1060   -1.3913
    0.2298   -0.1060   -1.3914
    0.2299   -0.1060   -1.3914
    0.2300   -0.1060   -1.3914
    0.2301   -0.1060   -1.3914
    0.2302   -0.1060   -1.3914
    0.2303   -0.1060   -1.3913
    0.2305   -0.1060   -1.3913
    0.2306   -0.1450   -1.3775
    0.2307   -0.1486   -1.3763
    0.2308   -0.1486   -1.3763
    0.2309   -0.1486   -1.3763
    0.2310   -0.1486   -1.3763
    0.2311   -0.1486   -1.3763
    0.2312   -0.1486   -1.3763
    0.2313   -0.1487   -1.3762
    0.2314   -0.1487   -1.3762
    0.2315   -0.1487   -1.3762
    0.2315   -0.1487   -1.3761
    0.1869   -0.1651   -1.3731
    0.1826   -0.1667   -1.3728
    0.1827   -0.1666   -1.3728
    0.1828   -0.1666   -1.3728
    0.1829   -0.1666   -1.3729
    0.1830   -0.1666   -1.3729
    0.1831   -0.1666   -1.3728
    0.1832   -0.1665   -1.3728
    0.1833   -0.1665   -1.3728
    0.1834   -0.1665   -1.3728
    0.1846   -0.1910   -1.3628
    0.1847   -0.1928   -1.3621
    0.1848   -0.1928   -1.3622
    0.1850   -0.1928   -1.3622
    0.1851   -0.1928   -1.3622
    0.1852   -0.1928   -1.3623
    0.1853   -0.1927   -1.3623
    0.1854   -0.1927   -1.3624
    0.1856   -0.1927   -1.3625
    0.1857   -0.1927   -1.3626
    0.1858   -0.1927   -1.3626
    0.1168   -0.2391   -1.3568
    0.1096   -0.2440   -1.3562
    0.1097   -0.2440   -1.3562
    0.1098   -0.2439   -1.3562
    0.1099   -0.2439   -1.3563
    0.1100   -0.2438   -1.3563
    0.1100   -0.2438   -1.3563
    0.1101   -0.2437   -1.3563
    0.1102   -0.2436   -1.3563
    0.1103   -0.2436   -1.3563
    0.1380   -0.2769   -1.3450
    0.1411   -0.2805   -1.3438
    0.1411   -0.2805   -1.3437
    0.1412   -0.2804   -1.3437
    0.1413   -0.2804   -1.3437
    0.1413   -0.2804   -1.3437
    0.1414   -0.2803   -1.3437
    0.1415   -0.2803   -1.3438
    0.1416   -0.2803   -1.3439
    0.1416   -0.2803   -1.3439
    0.1417   -0.2802   -1.3439
    0.1016   -0.3220   -1.3397
    0.0978   -0.3259   -1.3391
    0.0979   -0.3259   -1.3391
    0.0980   -0.3259   -1.3391
    0.0981   -0.3259   -1.3392
    0.0982   -0.3259   -1.3393
    0.0983   -0.3259   -1.3393
    0.0983   -0.3259   -1.3394
    0.0984   -0.3259   -1.3395
    0.0985   -0.3259   -1.3396
    0.0323   -0.3613   -1.3446
    0.0255   -0.3649   -1.3448
    0.0256   -0.3649   -1.3449
    0.0257   -0.3649   -1.3450
    0.0258   -0.3649   -1.3450
    0.0259   -0.3649   -1.3450
    0.0260   -0.3649   -1.3450
    0.0261   -0.3649   -1.3450
    0.0262   -0.3649   -1.3450
    0.0263   -0.3649   -1.3451
    0.0264   -0.3649   -1.3451
    0.0309   -0.3724   -1.3517
    0.0315   -0.3731   -1.3522
    0.0316   -0.3731   -1.3522
    0.0318   -0.3731   -1.3522
    0.0319   -0.3731   -1.3521
    0.0320   -0.3731   -1.3520
    0.0321   -0.3731   -1.3520
    0.0322   -0.3730   -1.3520
    0.0323   -0.3730   -1.3519
    0.0324   -0.3730   -1.3519
    0.0923   -0.4093   -1.3357
    0.0986   -0.4130   -1.3342
    0.0987   -0.4130   -1.3343
    0.0989   -0.4130   -1.3343
    0.0989   -0.4129   -1.3343
    0.0991   -0.4129   -1.3343
    0.0991   -0.4128   -1.3344
    0.0992   -0.4128   -1.3344
    0.0993   -0.4127   -1.3344
    0.0994   -0.4127   -1.3344
    0.0670   -0.4454   -1.3426
    0.0636   -0.4487   -1.3431
    0.0637   -0.4487   -1.3431
    0.0638   -0.4487   -1.3430
    0.0639   -0.4488   -1.3430
    0.0640   -0.4488   -1.3430
    0.0641   -0.4488   -1.3430
    0.0642   -0.4487   -1.3430
    0.0643   -0.4487   -1.3430
    0.0644   -0.4487   -1.3430
    0.0645   -0.4487   -1.3430
    0.0661   -0.4706   -1.3431
    0.0663   -0.4726   -1.3430
    0.0664   -0.4726   -1.3430
    0.0665   -0.4725   -1.3430
    0.0666   -0.4725   -1.3430
    0.0667   -0.4724   -1.3430
    0.0668   -0.4724   -1.3430
    0.0669   -0.4723   -1.3430
    0.0670   -0.4723   -1.3429
    0.0670   -0.4722   -1.3429
    0.0904   -0.5103   -1.3331
    0.0929   -0.5142   -1.3320
    0.0930   -0.5142   -1.3320
    0.0931   -0.5141   -1.3320
    0.0932   -0.5141   -1.3320
    0.0932   -0.5140   -1.3320
    0.0933   -0.5140   -1.3320
    0.0934   -0.5140   -1.3320
    0.0935   -0.5140   -1.3320
    0.0936   -0.5140   -1.3320
    0.0937   -0.5139   -1.3320
    0.0905   -0.5146   -1.3298
    0.0902   -0.5147   -1.3296
    0.0903   -0.5147   -1.3297
    0.0905   -0.5148   -1.3297
    0.0906   -0.5148   -1.3297
    0.0907   -0.5148   -1.3298
    0.0908   -0.5148   -1.3299
    0.0909   -0.5148   -1.3300
    0.0910   -0.5147   -1.3300
    0.0911   -0.5147   -1.3301
    0.0756   -0.5055   -1.3384
    0.0740   -0.5044   -1.3393
    0.0740   -0.5044   -1.3394
    0.0741   -0.5044   -1.3395
    0.0742   -0.5044   -1.3396
    0.0743   -0.5044   -1.3398
    0.0743   -0.5044   -1.3399
    0.0744   -0.5043   -1.3400
    0.0745   -0.5043   -1.3401
    0.0745   -0.5043   -1.3402
    0.1181   -0.5176   -1.3447
    0.1230   -0.5189   -1.3449
    0.1230   -0.5189   -1.3449
    0.1231   -0.5188   -1.3450
    0.1232   -0.5188   -1.3450
    0.1232   -0.5188   -1.3450
    0.1233   -0.5188   -1.3451
    0.1234   -0.5187   -1.3451
    0.1234   -0.5187   -1.3452
    0.1235   -0.5187   -1.3452
    0.1236   -0.5186   -1.3453
    0.1637   -0.5250   -1.3639
    0.1677   -0.5254   -1.3652
    0.1678   -0.5254   -1.3652
    0.1678   -0.5254   -1.3653
    0.1679   -0.5253   -1.3653
    0.1680   -0.5253   -1.3654
    0.1681   -0.5253   -1.3655
    0.1682   -0.5253   -1.3655
    0.1683   -0.5253   -1.3655
    0.1684   -0.5253   -1.3655
    0.1657   -0.5212   -1.3904
    0.1655   -0.5205   -1.3923
    0.1656   -0.5205   -1.3923
    0.1657   -0.5205   -1.3923
    0.1657   -0.5204   -1.3922
    0.1658   -0.5204   -1.3922
    0.1659   -0.5204   -1.3921
    0.1660   -0.5203   -1.3921
    0.1660   -0.5203   -1.3921
    0.1661   -0.5202   -1.3920
    0.1662   -0.5201   -1.3920
    0.1739   -0.4840   -1.4255
    0.1747   -0.4801   -1.4283
    0.1748   -0.4800   -1.4282
    0.1748   -0.4799   -1.4282
    0.1749   -0.4799   -1.4282
    0.1749   -0.4798   -1.4282
    0.1750   -0.4798   -1.4282
    0.1750   -0.4797   -1.4281
    0.1751   -0.4797   -1.4281
    0.1751   -0.4797   -1.4280
    0.1798   -0.4427   -1.4411
    0.1807   -0.4388   -1.4425
    0.1808   -0.4387   -1.4425
    0.1808   -0.4387   -1.4425
    0.1809   -0.4386   -1.4425
    0.1809   -0.4386   -1.4425
    0.1810   -0.4386   -1.4424
    0.1811   -0.4385   -1.4424
    0.1811   -0.4385   -1.4424
    0.1812   -0.4385   -1.4423
    0.1849   -0.3859   -1.4462
    0.1853   -0.3801   -1.4470
    0.1854   -0.3800   -1.4470
    0.1854   -0.3800   -1.4470
    0.1854   -0.3799   -1.4470
    0.1855   -0.3799   -1.4470
    0.1856   -0.3799   -1.4470
    0.1856   -0.3799   -1.4470
    0.1857   -0.3799   -1.4470
    0.1858   -0.3799   -1.4471
    0.1859   -0.3799   -1.4471
    0.2043   -0.3367   -1.4463
    0.2064   -0.3323   -1.4464
    0.2065   -0.3323   -1.4464
    0.2066   -0.3323   -1.4464
    0.2066   -0.3323   -1.4464
    0.2067   -0.3323   -1.4464
    0.2068   -0.3324   -1.4464
    0.2069   -0.3324   -1.4465
    0.2070   -0.3324   -1.4465
    0.2071   -0.3325   -1.4465
    0.2364   -0.2954   -1.4456
    0.2396   -0.2916   -1.4457
    0.2397   -0.2916   -1.4457
    0.2397   -0.2916   -1.4457
    0.2398   -0.2916   -1.4457
    0.2399   -0.2916   -1.4457
    0.2400   -0.2916   -1.4456
    0.2400   -0.2916   -1.4456
    0.2401   -0.2916   -1.4456
    0.2402   -0.2916   -1.4455
    0.2403   -0.2916   -1.4455
    0.2603   -0.2251   -1.4332
    0.2624   -0.2182   -1.4324
    0.2625   -0.2182   -1.4323
    0.2626   -0.2182   -1.4323
    0.2626   -0.2182   -1.4323
    0.2627   -0.2182   -1.4323
    0.2628   -0.2182   -1.4323
    0.2629   -0.2181   -1.4323
    0.2629   -0.2181   -1.4324
    0.2630   -0.2181   -1.4324
    0.2666   -0.2090   -1.4257
    0.2671   -0.2080   -1.4251
    0.2672   -0.2080   -1.4252
    0.2673   -0.2080   -1.4252
    0.2674   -0.2080   -1.4252
    0.2675   -0.2080   -1.4253
    0.2675   -0.2080   -1.4253
    0.2676   -0.2081   -1.4253
    0.2677   -0.2081   -1.4252
    0.2678   -0.2081   -1.4252
    0.2503   -0.1617   -1.4182
    0.2485   -0.1567   -1.4178
    0.2485   -0.1567   -1.4178
    0.2486   -0.1567   -1.4178
    0.2487   -0.1567   -1.4178
    0.2488   -0.1567   -1.4178
    0.2489   -0.1567   -1.4179
    0.2490   -0.1567   -1.4179
    0.2491   -0.1567   -1.4179
    0.2492   -0.1567   -1.4180
    0.2492   -0.1568   -1.4180
    0.2126   -0.1266   -1.4091
    0.2091   -0.1237   -1.4084
    0.2092   -0.1238   -1.4084
    0.2093   -0.1238   -1.4085
    0.2094   -0.1238   -1.4085
    0.2095   -0.1238   -1.4085
    0.2096   -0.1238   -1.4085
    0.2097   -0.1238   -1.4086
    0.2098   -0.1239   -1.4086
    0.2099   -0.1239   -1.4086
    0.1876   -0.0860   -1.3972
    0.1851   -0.0819   -1.3962
    0.1852   -0.0819   -1.3962
    0.1853   -0.0819   -1.3963
    0.1854   -0.0819   -1.3963
    0.1855   -0.0820   -1.3963
    0.1856   -0.0820   -1.3963
    0.1857   -0.0820   -1.3963
    0.1858   -0.0821   -1.3963
    0.1859   -0.0821   -1.3963
    0.1860   -0.0822   -1.3963
    0.1811   -0.0493   -1.3869
    0.1807   -0.0460   -1.3861
    0.1807   -0.0460   -1.3861
    0.1808   -0.0461   -1.3862
    0.1809   -0.0462   -1.3862
    0.1810   -0.0463   -1.3862
    0.1811   -0.0464   -1.3863
    0.1812   -0.0465   -1.3863
    0.1813   -0.0465   -1.3863
    0.1814   -0.0466   -1.3863
    0.1583   -0.0017   -1.3744
    0.1558    0.0031   -1.3732
    0.1559    0.0030   -1.3733
    0.1560    0.0029   -1.3733
    0.1560    0.0029   -1.3733
    0.1561    0.0029   -1.3733
    0.1562    0.0028   -1.3732
    0.1563    0.0028   -1.3732
    0.1564    0.0027   -1.3732
    0.1565    0.0026   -1.3732
    0.1565    0.0026   -1.3732
    0.1778    0.0254   -1.3691
    0.1795    0.0275   -1.3687
    0.1796    0.0274   -1.3688
    0.1797    0.0274   -1.3688
    0.1798    0.0273   -1.3688
    0.1798    0.0273   -1.3688
    0.1799    0.0272   -1.3688
    0.1800    0.0271   -1.3688
    0.1801    0.0271   -1.3688
    0.1802    0.0271   -1.3688
    0.1815    0.0350   -1.3630
    0.1817    0.0358   -1.3626
    0.1817    0.0357   -1.3626
    0.1818    0.0356   -1.3626
    0.1819    0.0356   -1.3626
    0.1820    0.0355   -1.3627
    0.1821    0.0355   -1.3627
    0.1822    0.0355   -1.3628
    0.1822    0.0354   -1.3628
    0.1823    0.0354   -1.3629
    0.1385    0.0426   -1.3503
    0.1340    0.0434   -1.3492
    0.1340    0.0433   -1.3492
    0.1341    0.0433   -1.3492
    0.1342    0.0433   -1.3492
    0.1343    0.0433   -1.3492
    0.1344    0.0433   -1.3493
    0.1344    0.0433   -1.3493
    0.1345    0.0433   -1.3493
    0.1346    0.0433   -1.3493
    0.1347    0.0433   -1.3493
    0.1519    0.0160   -1.3507
    0.1537    0.0132   -1.3509
    0.1538    0.0132   -1.3509
    0.1539    0.0131   -1.3509
    0.1540    0.0131   -1.3510
    0.1541    0.0131   -1.3510
    0.1542    0.0131   -1.3511
    0.1544    0.0130   -1.3511
    0.1545    0.0130   -1.3511
    0.1546    0.0130   -1.3511
    0.1454   -0.0204   -1.3440
    0.1424   -0.0240   -1.3437
    0.1425   -0.0241   -1.3438
    0.1426   -0.0241   -1.3438
    0.1427   -0.0241   -1.3438
    0.1428   -0.0241   -1.3439
    0.1429   -0.0241   -1.3440
    0.1430   -0.0241   -1.3440
    0.1431   -0.0240   -1.3441
    0.1432   -0.0240   -1.3441
    0.1433   -0.0240   -1.3442
    0.0965   -0.0583   -1.3403
    0.0920   -0.0616   -1.3397
    0.0921   -0.0616   -1.3397
    0.0921   -0.0616   -1.3397
    0.0922   -0.0616   -1.3398
    0.0923   -0.0616   -1.3398
    0.0924   -0.0616   -1.3398
    0.0925   -0.0615   -1.3398
    0.0926   -0.0615   -1.3398
    0.0926   -0.0615   -1.3398
    0.1381   -0.0983   -1.3426
    0.1430   -0.1022   -1.3430
    0.1431   -0.1022   -1.3430
    0.1432   -0.1022   -1.3430
    0.1433   -0.1022   -1.3430
    0.1434   -0.1021   -1.3430
    0.1435   -0.1021   -1.3430
    0.1435   -0.1021   -1.3430
    0.1436   -0.1021   -1.3430
    0.1437   -0.1020   -1.3431
    0.1167   -0.1554   -1.3453
    0.1141   -0.1608   -1.3450
    0.1141   -0.1608   -1.3450
    0.1142   -0.1608   -1.3451
    0.1143   -0.1608   -1.3451
    0.1144   -0.1608   -1.3451
    0.1144   -0.1608   -1.3451
    0.1145   -0.1607   -1.3451
    0.1146   -0.1607   -1.3451
    0.1146   -0.1607   -1.3451
    0.1147   -0.1607   -1.3452
    0.0995   -0.1836   -1.3535
    0.0981   -0.1858   -1.3539
    0.0982   -0.1858   -1.3538
    0.0983   -0.1858   -1.3538
    0.0983   -0.1857   -1.3538
    0.0984   -0.1857   -1.3537
    0.0984   -0.1857   -1.3537
    0.0985   -0.1856   -1.3537
    0.0986   -0.1856   -1.3537
    0.0986   -0.1855   -1.3537
    0.1306   -0.2315   -1.3547
    0.1342   -0.2365   -1.3548
    0.1343   -0.2365   -1.3548
    0.1344   -0.2364   -1.3548
    0.1344   -0.2364   -1.3548
    0.1345   -0.2364   -1.3548
    0.1346   -0.2363   -1.3548
    0.1347   -0.2363   -1.3549
    0.1348   -0.2363   -1.3549
    0.1349   -0.2363   -1.3549
    0.1349   -0.2363   -1.3550
    0.0838   -0.2832   -1.3498
    0.0789   -0.2885   -1.3485
    0.0790   -0.2885   -1.3485
    0.0791   -0.2885   -1.3485
    0.0792   -0.2884   -1.3485
    0.0793   -0.2884   -1.3485
    0.0794   -0.2884   -1.3485
    0.0795   -0.2883   -1.3485
    0.0796   -0.2883   -1.3484
    0.0797   -0.2883   -1.3484
    0.1135   -0.3336   -1.3445
    0.1170   -0.3382   -1.3442
    0.1171   -0.3382   -1.3442
    0.1172   -0.3382   -1.3442
    0.1173   -0.3381   -1.3442
    0.1174   -0.3381   -1.3442
    0.1175   -0.3381   -1.3443
    0.1176   -0.3381   -1.3443
    0.1177   -0.3380   -1.3444
    0.1177   -0.3380   -1.3444
    0.0773   -0.3573   -1.3438
    0.0732   -0.3593   -1.3434
    0.0733   -0.3592   -1.3435
    0.0734   -0.3592   -1.3435
    0.0734   -0.3592   -1.3435
    0.0735   -0.3592   -1.3435
    0.0736   -0.3591   -1.3435
    0.0736   -0.3591   -1.3436
    0.0737   -0.3591   -1.3436
    0.0738   -0.3590   -1.3436
    0.0738   -0.3589   -1.3437
    0.0648   -0.3918   -1.3409
    0.0639   -0.3951   -1.3405
    0.0640   -0.3951   -1.3405
    0.0641   -0.3950   -1.3405
    0.0641   -0.3950   -1.3405
    0.0642   -0.3949   -1.3406
    0.0643   -0.3949   -1.3406
    0.0643   -0.3948   -1.3406
    0.0644   -0.3947   -1.3406
    0.0645   -0.3947   -1.3406
    0.0616   -0.4229   -1.3373
    0.0614   -0.4259   -1.3368
    0.0614   -0.4258   -1.3369
    0.0615   -0.4257   -1.3369
    0.0616   -0.4257   -1.3369
    0.0617   -0.4256   -1.3369
    0.0618   -0.4256   -1.3369
    0.0619   -0.4255   -1.3369
    0.0619   -0.4254   -1.3369
    0.0620   -0.4254   -1.3369
    0.0621   -0.4253   -1.3369
    0.0686   -0.4368   -1.3345
    0.0693   -0.4379   -1.3343
    0.0694   -0.4379   -1.3343
    0.0695   -0.4378   -1.3343
    0.0695   -0.4377   -1.3344
    0.0696   -0.4377   -1.3344
    0.0697   -0.4376   -1.3345
    0.0698   -0.4376   -1.3346
    0.0698   -0.4375   -1.3347
    0.0699   -0.4375   -1.3347
    0.0190   -0.4485   -1.3244
    0.0138   -0.4497   -1.3234
    0.0138   -0.4496   -1.3235
    0.0139   -0.4496   -1.3235
    0.0140   -0.4496   -1.3235
    0.0141   -0.4495   -1.3235
    0.0142   -0.4495   -1.3236
    0.0142   -0.4495   -1.3236
    0.0143   -0.4495   -1.3237
    0.0144   -0.4495   -1.3237
    0.0145   -0.4495   -1.3237
    0.0112   -0.4246   -1.3263
    0.0110   -0.4221   -1.3267
    0.0111   -0.4221   -1.3267
    0.0112   -0.4222   -1.3267
    0.0114   -0.4222   -1.3266
    0.0115   -0.4223   -1.3266
    0.0116   -0.4223   -1.3266
    0.0117   -0.4223   -1.3266
    0.0118   -0.4223   -1.3266
    0.0119   -0.4223   -1.3266
    0.0036   -0.3923   -1.3314
    0.0028   -0.3890   -1.3320
    0.0029   -0.3891   -1.3320
    0.0030   -0.3891   -1.3321
    0.0031   -0.3891   -1.3321
    0.0032   -0.3891   -1.3321
    0.0033   -0.3891   -1.3321
    0.0034   -0.3891   -1.3320
    0.0035   -0.3891   -1.3320
    0.0036   -0.3891   -1.3320
   -0.0615   -0.3410   -1.3388
   -0.0686   -0.3355   -1.3393
   -0.0685   -0.3355   -1.3393
   -0.0684   -0.3355   -1.3393
   -0.0683   -0.3354   -1.3393
   -0.0682   -0.3354   -1.3393
   -0.0681   -0.3355   -1.3393
   -0.0680   -0.3355   -1.3392
   -0.0679   -0.3355   -1.3391
   -0.0678   -0.3355   -1.3390
   -0.0676   -0.3355   -1.3389
    0.0096   -0.3100   -1.3276
    0.0169   -0.3077   -1.3270
    0.0170   -0.3077   -1.3270
    0.0171   -0.3077   -1.3269
    0.0172   -0.3078   -1.3269
    0.0173   -0.3078   -1.3269
    0.0174   -0.3079   -1.3269
    0.0175   -0.3079   -1.3269
    0.0177   -0.3079   -1.3270
    0.0178   -0.3080   -1.3270
    0.0328   -0.2706   -1.3162
    0.0341   -0.2676   -1.3159
    0.0342   -0.2677   -1.3160
    0.0343   -0.2678   -1.3160
    0.0344   -0.2678   -1.3160
    0.0345   -0.2679   -1.3160
    0.0346   -0.2679   -1.3160
    0.0347   -0.2680   -1.3161
    0.0347   -0.2680   -1.3161
    0.0348   -0.2680   -1.3161
    0.0349   -0.2681   -1.3161
    0.0517   -0.2524   -1.3073
    0.0535   -0.2509   -1.3067
    0.0536   -0.2509   -1.3067
    0.0536   -0.2509   -1.3067
    0.0537   -0.2509   -1.3068
    0.0538   -0.2509   -1.3068
    0.0538   -0.2510   -1.3069
    0.0539   -0.2510   -1.3069
    0.0540   -0.2510   -1.3069
    0.0541   -0.2510   -1.3070
    0.0288   -0.2011   -1.3114
    0.0261   -0.1957   -1.3120
    0.0262   -0.1957   -1.3120
    0.0263   -0.1957   -1.3121
    0.0264   -0.1957   -1.3121
    0.0264   -0.1958   -1.3122
    0.0265   -0.1958   -1.3122
    0.0266   -0.1958   -1.3122
    0.0267   -0.1958   -1.3122
    0.0267   -0.1958   -1.3122
    0.0584   -0.1660   -1.3045
    0.0620   -0.1629   -1.3040
    0.0621   -0.1629   -1.3040
    0.0621   -0.1629   -1.3040
    0.0622   -0.1629   -1.3040
    0.0623   -0.1629   -1.3041
    0.0624   -0.1630   -1.3041
    0.0625   -0.1630   -1.3041
    0.0626   -0.1631   -1.3041
    0.0627   -0.1631   -1.3041
    0.0628   -0.1632   -1.3041
    0.0632   -0.1401   -1.3006
    0.0633   -0.1380   -1.3005
    0.0634   -0.1380   -1.3005
    0.0634   -0.1380   -1.3005
    0.0635   -0.1381   -1.3005
    0.0636   -0.1381   -1.3006
    0.0637   -0.1381   -1.3006
    0.0638   -0.1382   -1.3006
    0.0639   -0.1382   -1.3006
    0.0639   -0.1382   -1.3006
    0.0743   -0.1028   -1.3001

t=t-t(1)

t =

         0
    0.0118
    0.0239
    0.0354
    0.0478
    0.0596
    0.0718
    0.0835
    0.0959
    0.1076
    0.1200
    0.1317
    0.1439
    0.1556
    0.1678
    0.1794
    0.1920
    0.2036
    0.2161
    0.2275
    0.2398
    0.2514
    0.2643
    0.2755
    0.2879
    0.2994
    0.3119
    0.3234
    0.3361
    0.3475
    0.3598
    0.3714
    0.3840
    0.3955
    0.4079
    0.4196
    0.4320
    0.4436
    0.4561
    0.4676
    0.4800
    0.4914
    0.5040
    0.5156
    0.5280
    0.5395
    0.5519
    0.5635
    0.5758
    0.5875
    0.5998
    0.6117
    0.6238
    0.6357
    0.6480
    0.6595
    0.6718
    0.6837
    0.6961
    0.7075
    0.7199
    0.7316
    0.7439
    0.7555
    0.7681
    0.7796
    0.7920
    0.8036
    0.8160
    0.8274
    0.8401
    0.8517
    0.8640
    0.8756
    0.8879
    0.8997
    0.9120
    0.9237
    0.9358
    0.9475
    0.9599
    0.9715
    0.9839
    0.9955
    1.0079
    1.0196
    1.0320
    1.0436
    1.0561
    1.0675
    1.0798
    1.0917
    1.1040
    1.1156
    1.1280
    1.1397
    1.1520
    1.1636
    1.1761
    1.1877
    1.2001
    1.2116
    1.2240
    1.2355
    1.2479
    1.2597
    1.2720
    1.2835
    1.2959
    1.3075
    1.3199
    1.3316
    1.3440
    1.3556
    1.3680
    1.3796
    1.3919
    1.4037
    1.4161
    1.4277
    1.4401
    1.4517
    1.4640
    1.4756
    1.4880
    1.4996
    1.5120
    1.5236
    1.5360
    1.5475
    1.5599
    1.5715
    1.5839
    1.5957
    1.6079
    1.6196
    1.6319
    1.6437
    1.6561
    1.6677
    1.6801
    1.6917
    1.7040
    1.7156
    1.7280
    1.7397
    1.7520
    1.7637
    1.7761
    1.7876
    1.8001
    1.8117
    1.8241
    1.8357
    1.8481
    1.8597
    1.8721
    1.8836
    1.8962
    1.9077
    1.9199
    1.9315
    1.9439
    1.9555
    1.9679
    1.9797
    1.9919
    2.0037
    2.0161
    2.0277
    2.0400
    2.0517
    2.0640
    2.0756
    2.0880
    2.0995
    2.1119
    2.1237
    2.1361
    2.1475
    2.1601
    2.1715
    2.1839
    2.1957
    2.2080
    2.2196
    2.2320
    2.2436
    2.2561
    2.2676
    2.2801
    2.2915
    2.3039
    2.3155
    2.3279
    2.3397
    2.3519
    2.3635
    2.3761
    2.3876
    2.4001
    2.4117
    2.4240
    2.4356
    2.4480
    2.4596
    2.4720
    2.4835
    2.4959
    2.5076
    2.5201
    2.5316
    2.5440
    2.5556
    2.5680
    2.5796
    2.5919
    2.6037
    2.6161
    2.6276
    2.6402
    2.6516
    2.6640
    2.6756
    2.6881
    2.6997
    2.7120
    2.7236
    2.7359
    2.7477
    2.7601
    2.7717
    2.7840
    2.7956
    2.8080
    2.8196
    2.8320
    2.8436
    2.8561
    2.8677
    2.8801
    2.8917
    2.9040
    2.9156
    2.9280
    2.9396
    2.9521
    2.9637
    2.9761
    2.9878
    2.9999
    3.0116
    3.0240
    3.0357
    3.0480
    3.0597
    3.0721
    3.0837
    3.0961
    3.1077
    3.1201
    3.1317
    3.1440
    3.1556
    3.1680
    3.1796
    3.1920
    3.2036
    3.2162
    3.2278
    3.2401
    3.2517
    3.2642
    3.2757
    3.2880
    3.2997
    3.3121
    3.3236
    3.3362
    3.3477
    3.3600
    3.3716
    3.3841
    3.3956
    3.4080
    3.4196
    3.4320
    3.4438
    3.4561
    3.4677
    3.4800
    3.4917
    3.5041
    3.5158
    3.5282
    3.5397
    3.5521
    3.5637
    3.5761
    3.5877
    3.6001
    3.6116
    3.6240
    3.6356
    3.6480
    3.6598
    3.6720
    3.6838
    3.6962
    3.7077
    3.7201
    3.7317
    3.7440
    3.7556
    3.7682
    3.7797
    3.7921
    3.8037
    3.8161
    3.8277
    3.8401
    3.8517
    3.8641
    3.8757
    3.8883
    3.8997
    3.9120
    3.9238
    3.9362
    3.9478
    3.9602
    3.9719
    3.9842
    3.9958
    4.0081
    4.0200
    4.0320
    4.0436
    4.0560
    4.0676
    4.0801
    4.0918
    4.1041
    4.1157
    4.1280
    4.1397
    4.1521
    4.1636
    4.1762
    4.1878
    4.2001
    4.2117
    4.2241
    4.2357
    4.2480
    4.2597
    4.2722
    4.2837
    4.2961
    4.3078
    4.3202
    4.3318
    4.3441
    4.3557
    4.3682
    4.3798
    4.3922
    4.4039
    4.4162
    4.4278
    4.4402
    4.4518
    4.4641
    4.4757
    4.4881
    4.4997
    4.5121
    4.5237
    4.5362
    4.5477
    4.5600
    4.5716
    4.5841
    4.5957
    4.6081
    4.6197
    4.6320
    4.6437
    4.6561
    4.6677
    4.6801
    4.6918
    4.7041
    4.7157
    4.7281
    4.7399
    4.7522
    4.7637
    4.7761
    4.7878
    4.8002
    4.8118
    4.8241
    4.8357
    4.8483
    4.8598
    4.8722
    4.8838
    4.8962
    4.9077
    4.9202
    4.9318
    4.9442
    4.9558
    4.9682
    4.9799
    4.9922
    5.0038
    5.0163
    5.0278
    5.0401
    5.0517
    5.0641
    5.0757
    5.0882
    5.0998
    5.1122
    5.1238
    5.1364
    5.1478
    5.1601
    5.1718
    5.1842
    5.1958
    5.2080
    5.2199
    5.2323
    5.2439
    5.2562
    5.2680
    5.2801
    5.2918
    5.3042
    5.3158
    5.3281
    5.3397
    5.3520
    5.3637
    5.3761
    5.3879
    5.4003
    5.4117
    5.4242
    5.4358
    5.4483
    5.4599
    5.4721
    5.4839
    5.4963
    5.5078
    5.5201
    5.5319
    5.5441
    5.5557
    5.5682
    5.5799
    5.5923
    5.6037
    5.6163
    5.6279
    5.6402
    5.6517
    5.6641
    5.6757
    5.6881
    5.6998
    5.7122
    5.7238
    5.7362
    5.7478
    5.7603
    5.7718
    5.7843
    5.7957
    5.8082
    5.8198
    5.8322
    5.8438
    5.8562
    5.8677
    5.8801
    5.8918
    5.9042
    5.9159
    5.9281
    5.9398
    5.9522
    5.9638
    5.9762
    5.9879
    6.0001
    6.0119
    6.0241
    6.0359
    6.0482
    6.0598
    6.0721
    6.0837
    6.0961
    6.1077
    6.1202
    6.1318
    6.1444
    6.1557
    6.1682
    6.1799
    6.1921
    6.2038
    6.2162
    6.2278
    6.2403
    6.2519
    6.2644
    6.2759
    6.2882
    6.2997
    6.3123
    6.3239
    6.3361
    6.3477
    6.3601
    6.3717
    6.3841
    6.3959
    6.4084
    6.4197
    6.4322
    6.4438
    6.4562
    6.4679
    6.4803
    6.4919
    6.5042
    6.5161
    6.5284
    6.5398
    6.5521
    6.5637
    6.5761
    6.5878
    6.6002
    6.6119
    6.6243
    6.6358
    6.6482
    6.6597
    6.6722
    6.6838
    6.6962
    6.7078
    6.7203
    6.7320
    6.7441
    6.7557
    6.7683
    6.7799
    6.7921
    6.8040
    6.8162
    6.8278
    6.8402
    6.8518
    6.8642
    6.8761
    6.8883
    6.8999
    6.9122
    6.9238
    6.9363
    6.9479
    6.9603
    6.9719
    6.9843
    6.9960
    7.0082
    7.0199
    7.0322
    7.0439
    7.0563
    7.0679
    7.0803
    7.0919
    7.1043
    7.1159
    7.1282
    7.1399
    7.1522
    7.1640
    7.1761
    7.1878
    7.2002
    7.2119
    7.2242
    7.2359
    7.2481
    7.2598
    7.2723
    7.2838
    7.2962
    7.3077
    7.3202
    7.3319
    7.3443
    7.3559
    7.3683
    7.3799
    7.3923
    7.4039
    7.4163
    7.4280
    7.4404
    7.4520
    7.4642
    7.4758
    7.4883
    7.4999
    7.5124
    7.5240
    7.5363
    7.5478
    7.5602
    7.5718
    7.5842
    7.5958
    7.6083
    7.6200
    7.6322
    7.6440
    7.6563
    7.6679
    7.6802
    7.6918
    7.7042
    7.7158
    7.7282
    7.7398
    7.7522
    7.7638
    7.7764
    7.7878
    7.8002
    7.8118
    7.8242
    7.8358
    7.8483
    7.8600
    7.8722
    7.8838
    7.8963
    7.9078
    7.9203
    7.9320
    7.9442
    7.9558
    7.9683
    7.9799
    7.9923
    8.0039
    8.0165
    8.0280
    8.0401
    8.0520
    8.0644
    8.0761
    8.0883
    8.0999
    8.1123
    8.1239
    8.1363
    8.1480
    8.1603
    8.1720
    8.1843
    8.1959
    8.2082
    8.2200
    8.2322
    8.2439
    8.2563
    8.2680
    8.2804
    8.2918
    8.3042
    8.3159
    8.3284
    8.3398
    8.3522
    8.3638
    8.3762
    8.3878
    8.4003
    8.4120
    8.4244
    8.4360
    8.4483
    8.4599
    8.4723
    8.4839
    8.4963
    8.5079
    8.5205
    8.5320
    8.5442
    8.5558
    8.5683
    8.5800
    8.5924
    8.6040
    8.6164
    8.6280
    8.6404
    8.6520
    8.6644
    8.6761
    8.6883
    8.6999
    8.7123
    8.7240
    8.7364
    8.7479
    8.7604
    8.7719
    8.7844
    8.7958
    8.8084
    8.8200
    8.8324
    8.8441
    8.8563
    8.8680
    8.8804
    8.8921
    8.9044
    8.9161
    8.9283
    8.9399
    8.9523
    8.9639
    8.9764
    8.9880
    9.0004
    9.0120
    9.0243
    9.0361
    9.0484
    9.0601
    9.0723
    9.0839
    9.0963
    9.1079
    9.1203
    9.1319
    9.1445
    9.1562
    9.1684
    9.1800
    9.1924
    9.2041
    9.2165
    9.2281
    9.2403
    9.2519
    9.2645
    9.2761
    9.2882
    9.3001
    9.3122
    9.3241
    9.3365
    9.3479
    9.3603
    9.3719
    9.3843
    9.3961
    9.4087
    9.4200
    9.4322
    9.4441
    9.4565
    9.4679
    9.4803
    9.4920
    9.5043
    9.5162
    9.5282
    9.5400
    9.5524
    9.5641
    9.5762
    9.5878
    9.6003
    9.6119
    9.6243
    9.6360
    9.6483
    9.6599
    9.6724
    9.6840
    9.6964
    9.7080
    9.7204
    9.7320
    9.7444
    9.7563
    9.7684
    9.7800
    9.7924
    9.8041
    9.8165
    9.8279
    9.8404
    9.8519
    9.8643
    9.8761
    9.8884
    9.9000
    9.9124
    9.9240
    9.9365
    9.9479
    9.9603
    9.9720
    9.9844
    9.9960
   10.0083
   10.0200
   10.0323
   10.0440
   10.0564
   10.0680
   10.0804
   10.0921
   10.1044
   10.1161
   10.1283
   10.1400
   10.1523
   10.1640
   10.1765
   10.1881
   10.2005
   10.2121
   10.2245
   10.2361
   10.2483
   10.2599
   10.2726
   10.2841
   10.2963
   10.3080
   10.3204
   10.3321
   10.3445
   10.3561
   10.3683
   10.3800
   10.3924
   10.4040
   10.4164
   10.4280
   10.4404
   10.4520
   10.4644
   10.4763
   10.4883
   10.5000
   10.5125
   10.5241
   10.5363
   10.5480
   10.5605
   10.5721
   10.5843
   10.5959
   10.6084
   10.6200
   10.6325
   10.6439
   10.6565
   10.6679
   10.6804
   10.6920
   10.7044
   10.7161
   10.7285
   10.7401
   10.7525
   10.7642
   10.7765
   10.7880
   10.8004
   10.8121
   10.8245
   10.8361
   10.8483
   10.8602
   10.8725
   10.8841
   10.8965
   10.9082
   10.9203
   10.9320
   10.9444
   10.9561
   10.9685
   10.9801
   10.9923
   11.0039
   11.0165
   11.0281
   11.0404
   11.0520
   11.0644
   11.0761
   11.0883
   11.1000
   11.1123
   11.1239
   11.1364
   11.1481
   11.1604
   11.1720
   11.1844
   11.1961
   11.2085
   11.2201
   11.2325
   11.2441
   11.2565
   11.2681
   11.2804
   11.2919
   11.3043
   11.3160
   11.3285
   11.3401
   11.3525
   11.3641
   11.3766
   11.3881
   11.4005
   11.4120
   11.4244
   11.4360
   11.4484
   11.4601
   11.4725
   11.4841
   11.4964
   11.5080
   11.5205
   11.5321
   11.5445
   11.5561
   11.5685
   11.5801
   11.5926
   11.6040
   11.6164
   11.6280
   11.6406
   11.6520
   11.6644
   11.6761
   11.6885
   11.7000
   11.7124
   11.7240
   11.7364
   11.7480
   11.7605
   11.7721
   11.7844
   11.7962
   11.8084
   11.8201
   11.8323
   11.8442
   11.8564
   11.8680
   11.8804
   11.8921
   11.9044
   11.9161
   11.9286
   11.9402
   11.9526
   11.9642
   11.9763
   11.9880
   12.0003
   12.0121
   12.0245
   12.0362
   12.0485
   12.0601
   12.0725
   12.0841
   12.0966
   12.1080
   12.1204
   12.1320
   12.1446
   12.1561
   12.1686
   12.1802
   12.1926
   12.2040
   12.2164
   12.2280
   12.2404
   12.2521
   12.2645
   12.2761
   12.2885
   12.3000
   12.3125
   12.3241
   12.3365
   12.3481
   12.3605
   12.3721
   12.3845
   12.3963
   12.4084
   12.4200
   12.4325
   12.4441
   12.4565
   12.4682
   12.4806
   12.4921
   12.5046
   12.5162
   12.5285
   12.5401
   12.5525
   12.5641
   12.5766
   12.5882
   12.6004
   12.6120
   12.6245
   12.6361
   12.6486
   12.6601
   12.6726
   12.6840
   12.6964
   12.7080
   12.7204
   12.7320
   12.7444
   12.7561
   12.7687
   12.7800
   12.7925
   12.8041
   12.8166
   12.8282
   12.8407
   12.8521
   12.8645
   12.8763
   12.8885
   12.9001
   12.9125
   12.9241
   12.9365
   12.9481
   12.9605
   12.9722
   12.9846
   12.9961
   13.0086
   13.0201
   13.0326
   13.0440
   13.0564
   13.0682
   13.0805
   13.0921
   13.1046
   13.1162
   13.1286
   13.1401
   13.1524
   13.1641
   13.1765
   13.1882
   13.2006
   13.2122
   13.2245
   13.2362
   13.2486
   13.2603
   13.2725
   13.2843
   13.2964
   13.3081
   13.3205
   13.3322
   13.3446
   13.3562
   13.3686
   13.3802
   13.3927
   13.4042
   13.4166
   13.4283
   13.4406
   13.4522
   13.4646
   13.4761
   13.4885
   13.5002
   13.5128
   13.5242
   13.5366
   13.5482
   13.5606
   13.5723
   13.5846
   13.5963
   13.6086
   13.6202
   13.6325
   13.6442
   13.6565
   13.6682
   13.6806
   13.6922
   13.7046
   13.7163
   13.7284
   13.7401
   13.7525
   13.7642
   13.7766
   13.7882
   13.8005
   13.8122
   13.8246
   13.8363
   13.8484
   13.8601
   13.8725
   13.8841
   13.8967
   13.9082
   13.9207
   13.9322
   13.9446
   13.9562
   13.9686
   13.9803
   13.9926
   14.0042
   14.0166
   14.0283
   14.0405
   14.0521
   14.0646
   14.0762
   14.0886
   14.1003
   14.1127
   14.1242
   14.1366
   14.1483
   14.1605
   14.1722
   14.1846
   14.1962
   14.2086
   14.2202
   14.2326
   14.2443
   14.2567
   14.2682
   14.2805
   14.2922
   14.3047
   14.3163
   14.3287
   14.3403
   14.3525
   14.3641
   14.3767
   14.3882
   14.4008
   14.4123
   14.4245
   14.4362
   14.4485
   14.4602
   14.4727
   14.4843
   14.4965
   14.5082
   14.5206
   14.5323
   14.5445
   14.5562
   14.5687
   14.5801
   14.5925
   14.6042
   14.6166
   14.6283
   14.6437
   14.6521
   14.6647
   14.6763
   14.6887
   14.7001
   14.7127
   14.7241
   14.7366
   14.7483
   14.7634
   14.7722
   14.7846
   14.7962
   14.8085
   14.8202
   14.8327
   14.8444
   14.8566
   14.8682
   14.8807
   14.8921
   14.9047
   14.9162
   14.9286
   14.9403
   14.9525
   14.9642
   14.9767
   14.9883
   15.0007
   15.0145
   15.0246
   15.0363
   15.0485
   15.0603
   15.0727
   15.0844
   15.0965
   15.1082
   15.1206
   15.1322
   15.1445
   15.1562
   15.1686
   15.1803
   15.1925
   15.2042
   15.2166
   15.2283
   15.2407
   15.2521
   15.2679
   15.2762
   15.2885
   15.3003
   15.3125
   15.3242
   15.3366
   15.3482
   15.3606
   15.3723
   15.3847
   15.3963
   15.4086
   15.4202
   15.4327
   15.4443
   15.4567
   15.4681
   15.4806
   15.4922
   15.5046
   15.5164
   15.5285
   15.5401
   15.5526
   15.5643
   15.5767
   15.5883
   15.6008
   15.6124
   15.6245
   15.6363
   15.6488
   15.6603
   15.6728
   15.6841
   15.6966
   15.7083
   15.7207
   15.7323
   15.7447
   15.7562
   15.7686
   15.7803
   15.7928
   15.8042
   15.8166
   15.8283
   15.8407
   15.8523
   15.8647
   15.8764
   15.8885
   15.9003
   15.9126
   15.9243
   15.9366
   15.9483
   15.9607
   15.9723
   15.9847
   15.9963
   16.0088
   16.0202
   16.0328
   16.0441
   16.0568
   16.0681
   16.0806
   16.0922
   16.1046
   16.1163
   16.1286
   16.1404
   16.1527
   16.1644
   16.1767
   16.1883
   16.2007
   16.2123
   16.2248
   16.2362
   16.2487
   16.2602
   16.2728
   16.2843
   16.2966
   16.3083
   16.3206
   16.3323
   16.3448
   16.3562
   16.3687
   16.3803
   16.3928
   16.4044
   16.4168
   16.4284
   16.4407
   16.4523
   16.4647
   16.4763
   16.4886
   16.5003
   16.5127
   16.5242
   16.5368
   16.5484
   16.5606
   16.5723
   16.5846
   16.5963
   16.6087
   16.6203
   16.6327
   16.6442
   16.6567
   16.6684
   16.6807
   16.6923
   16.7047
   16.7164
   16.7288
   16.7403
   16.7527
   16.7644
   16.7768
   16.7884
   16.8008
   16.8124
   16.8248
   16.8364
   16.8487
   16.8603
   16.8727
   16.8848
   16.8968
   16.9084
   16.9207
   16.9323
   16.9447
   16.9564
   16.9688
   16.9804
   16.9928
   17.0044
   17.0168
   17.0283
   17.0407
   17.0524
   17.0647
   17.0764
   17.0886
   17.1003
   17.1128
   17.1242
   17.1367
   17.1483
   17.1606
   17.1724
   17.1846
   17.1962
   17.2087
   17.2204
   17.2326
   17.2443
   17.2568
   17.2683
   17.2808
   17.2924
   17.3048
   17.3165
   17.3287
   17.3404
   17.3528
   17.3642
   17.3767
   17.3884
   17.4008
   17.4122
   17.4246
   17.4363
   17.4488
   17.4603
   17.4728
   17.4843
   17.4968
   17.5082
   17.5209
   17.5322
   17.5447
   17.5563
   17.5688
   17.5803
   17.5928
   17.6045
   17.6167
   17.6284
   17.6407
   17.6523
   17.6648
   17.6764
   17.6887
   17.7004
   17.7128
   17.7243
   17.7368
   17.7483
   17.7608
   17.7724
   17.7847
   17.7964
   17.8088
   17.8203
   17.8327
   17.8444
   17.8567
   17.8684
   17.8808
   17.8923
   17.9048
   17.9164
   17.9288
   17.9403
   17.9527
   17.9644
   17.9768
   17.9883
   18.0007
   18.0125
   18.0247
   18.0364
   18.0488
   18.0605
   18.0729
   18.0845
   18.0967
   18.1084
   18.1206
   18.1323
   18.1448
   18.1563
   18.1689
   18.1803
   18.1927
   18.2043
   18.2168
   18.2284
   18.2409
   18.2523
   18.2648
   18.2765
   18.2887
   18.3003
   18.3128
   18.3244
   18.3368
   18.3485
   18.3608
   18.3725
   18.3849
   18.3964
   18.4087
   18.4204
   18.4328
   18.4444
   18.4568
   18.4684
   18.4808
   18.4923
   18.5048
   18.5166
   18.5287
   18.5404
   18.5528
   18.5644
   18.5768
   18.5884
   18.6007
   18.6123
   18.6248
   18.6365
   18.6488
   18.6603
   18.6727
   18.6844
   18.6968
   18.7084
   18.7208
   18.7325
   18.7449
   18.7563
   18.7689
   18.7803
   18.7927
   18.8043
   18.8168
   18.8284
   18.8409
   18.8525
   18.8647
   18.8765
   18.8889
   18.9004
   18.9129
   18.9245
   18.9369
   18.9485
   18.9607
   18.9724
   18.9848
   18.9965
   19.0089
   19.0205
   19.0328
   19.0444
   19.0568
   19.0684
   19.0809
   19.0923
   19.1047
   19.1164
   19.1288
   19.1406
   19.1529
   19.1645
   19.1769
   19.1885
   19.2007
   19.2125
   19.2247
   19.2364
   19.2488
   19.2606
   19.2728
   19.2846
   19.2969
   19.3083
   19.3207
   19.3324
   19.3448
   19.3566
   19.3688
   19.3804
   19.3928
   19.4045
   19.4168
   19.4286
   19.4407
   19.4524
   19.4648
   19.4765
   19.4889
   19.5006
   19.5129
   19.5245
   19.5369
   19.5486
   19.5607
   19.5724
   19.5848
   19.5965
   19.6087
   19.6204
   19.6328
   19.6445
   19.6568
   19.6684
   19.6808
   19.6924
   19.7048
   19.7165
   19.7289
   19.7405
   19.7529
   19.7644
   19.7767
   19.7884
   19.8008
   19.8124
   19.8248
   19.8364
   19.8488
   19.8604
   19.8728
   19.8845
   19.8969
   19.9084
   19.9208
   19.9324
   19.9448
   19.9565
   19.9689
   19.9805
   19.9929
   20.0045
   20.0170
   20.0284
   20.0408
   20.0524
   20.0648
   20.0766
   20.0888
   20.1005
   20.1129
   20.1244
   20.1369
   20.1486
   20.1608
   20.1725
   20.1849
   20.1966
   20.2088
   20.2204
   20.2329
   20.2446
   20.2568
   20.2686
   20.2810
   20.2924
   20.3048
   20.3165
   20.3289
   20.3406
   20.3528
   20.3644
   20.3769
   20.3885
   20.4009
   20.4125
   20.4250
   20.4366
   20.4488
   20.4605
   20.4730
   20.4844
   20.4968
   20.5085
   20.5209
   20.5325
   20.5449
   20.5565
   20.5690
   20.5804
   20.5928
   20.6044
   20.6169
   20.6285
   20.6409
   20.6524
   20.6649
   20.6765
   20.6889
   20.7006
   20.7128
   20.7245
   20.7368
   20.7486
   20.7611
   20.7725
   20.7848
   20.7964
   20.8088
   20.8205
   20.8328
   20.8445
   20.8569
   20.8685
   20.8810
   20.8925
   20.9048
   20.9164
   20.9288
   20.9404
   20.9529
   20.9645
   20.9769
   20.9885
   21.0010
   21.0125
   21.0250
   21.0367
   21.0488
   21.0604
   21.0728
   21.0845
   21.0968
   21.1085
   21.1209
   21.1325
   21.1450
   21.1565
   21.1689
   21.1805
   21.1928
   21.2044
   21.2168
   21.2285
   21.2409
   21.2526
   21.2648
   21.2764
   21.2888
   21.3004
   21.3128
   21.3244
   21.3368
   21.3484
   21.3608
   21.3724
   21.3850
   21.3966
   21.4088
   21.4204
   21.4330
   21.4444
   21.4568
   21.4685
   21.4809
   21.4925
   21.5049
   21.5166
   21.5289
   21.5404
   21.5528
   21.5644
   21.5771
   21.5887
   21.6008
   21.6124
   21.6248
   21.6366
   21.6488
   21.6605
   21.6729
   21.6844
   21.6971
   21.7084
   21.7208
   21.7324
   21.7449
   21.7566
   21.7690
   21.7805
   21.7929
   21.8044
   21.8168
   21.8286
   21.8410
   21.8527
   21.8648
   21.8765
   21.8891
   21.9006

plot(t,x)
plot(t,x)
hold on
plot(truth(:,1),truth(:,2:4),'--')
xlabel('Time (s)')
ylabel('Coordinate (m)')
legend('x','y','z','xa','ya','za');
diary off
